Unit Serial No : SM245-KSP200281-EU
Integration Time : 100 ms
Time Average: 10
Binning Average: 0
FFT Smoothing: 0%
Project Name : Project Name
Sample Name : 0068
Measurement No : 1
Measurement Time : 12/09/2022   15:34:46

Wavelength(nm)	Wavenumber(1/cm)	Intensity(Counts)
133.0000      	75187.9699    	2611.50000    
134.0000      	74626.8657    	2614.00000    
135.0000      	74074.0741    	2582.69995    
136.0000      	73529.4118    	2612.00000    
137.0000      	72992.7007    	2613.89990    
138.0000      	72463.7681    	2604.69995    
139.0000      	71942.4460    	2627.19995    
140.0000      	71428.5714    	2592.80005    
141.0000      	70921.9858    	2595.30005    
142.0000      	70422.5352    	2642.89990    
143.0000      	69930.0699    	2610.19995    
144.0000      	69444.4444    	2622.10010    
145.0000      	68965.5172    	2626.39990    
146.0000      	68493.1507    	2594.50000    
147.0000      	68027.2109    	2621.80005    
148.0000      	67567.5676    	2625.00000    
149.0000      	67114.0940    	2604.30005    
150.0000      	66666.6667    	2609.00000    
151.0000      	66225.1656    	2622.80005    
152.0000      	65789.4737    	2601.50000    
153.0000      	65359.4771    	2626.60010    
154.0000      	64935.0649    	2625.89990    
155.0000      	64516.1290    	2598.69995    
156.0000      	64102.5641    	2591.80005    
157.0000      	63694.2675    	2605.60010    
158.0000      	63291.1392    	2600.10010    
159.0000      	62893.0818    	2621.69995    
160.0000      	62500.0000    	2617.30005    
161.0000      	62111.8012    	2604.60010    
162.0000      	61728.3951    	2613.10010    
163.0000      	61349.6933    	2589.80005    
164.0000      	60975.6098    	2615.50000    
165.0000      	60606.0606    	2609.80005    
166.0000      	60240.9639    	2628.10010    
167.0000      	59880.2395    	2592.00000    
168.0000      	59523.8095    	2613.80005    
169.0000      	59171.5976    	2602.80005    
170.0000      	58823.5294    	2602.19995    
171.0000      	58479.5322    	2617.19995    
172.0000      	58139.5349    	2620.60010    
173.0000      	57803.4682    	2620.10010    
174.0000      	57471.2644    	2614.00000    
175.0000      	57142.8571    	2608.30005    
176.0000      	56818.1818    	2606.39990    
177.0000      	56497.1751    	2731.00000    
178.0000      	56179.7753    	2601.50000    
179.0000      	55865.9218    	2627.10010    
180.0000      	55555.5556    	2594.00000    
181.0000      	55248.6188    	2601.69995    
182.0000      	54945.0549    	2604.69995    
183.0000      	54644.8087    	2600.39990    
184.0000      	54347.8261    	2613.19995    
185.0000      	54054.0541    	2607.00000    
186.0000      	53763.4409    	2603.39990    
187.0000      	53475.9358    	2600.30005    
188.0000      	53191.4894    	2610.19995    
189.0000      	52910.0529    	2594.19995    
190.0000      	52631.5789    	2587.69995    
191.0000      	52356.0209    	2594.50000    
192.0000      	52083.3333    	2703.89990    
193.0000      	51813.4715    	2614.50000    
194.0000      	51546.3918    	2663.30005    
195.0000      	51282.0513    	2621.69995    
196.0000      	51020.4082    	2607.89990    
197.0000      	50761.4213    	2598.50000    
198.0000      	50505.0505    	2609.30005    
199.0000      	50251.2563    	2610.80005    
200.0000      	50000.0000    	2591.19995    
201.0000      	49751.2438    	2615.39990    
202.0000      	49504.9505    	2618.50000    
203.0000      	49261.0837    	2618.00000    
204.0000      	49019.6078    	2592.00000    
205.0000      	48780.4878    	2610.39990    
206.0000      	48543.6893    	2606.00000    
207.0000      	48309.1787    	2614.60010    
208.0000      	48076.9231    	2608.00000    
209.0000      	47846.8900    	2618.50000    
210.0000      	47619.0476    	2596.30005    
211.0000      	47393.3649    	2593.69995    
212.0000      	47169.8113    	2594.30005    
213.0000      	46948.3568    	2633.60010    
214.0000      	46728.9720    	2677.30005    
215.0000      	46511.6279    	2602.00000    
216.0000      	46296.2963    	2647.80005    
217.0000      	46082.9493    	2620.89990    
218.0000      	45871.5596    	2610.30005    
219.0000      	45662.1005    	2606.69995    
220.0000      	45454.5455    	2606.00000    
221.0000      	45248.8688    	2654.19995    
222.0000      	45045.0450    	2606.80005    
223.0000      	44843.0493    	2624.50000    
224.0000      	44642.8571    	2595.30005    
225.0000      	44444.4444    	2639.80005    
226.0000      	44247.7876    	2590.69995    
227.0000      	44052.8634    	2593.30005    
228.0000      	43859.6491    	2603.89990    
229.0000      	43668.1223    	2599.19995    
230.0000      	43478.2609    	2644.89990    
231.0000      	43290.0433    	2581.89990    
232.0000      	43103.4483    	2633.30005    
233.0000      	42918.4549    	2593.30005    
234.0000      	42735.0427    	2623.00000    
235.0000      	42553.1915    	2620.00000    
236.0000      	42372.8814    	2609.19995    
237.0000      	42194.0928    	2576.00000    
238.0000      	42016.8067    	2651.60010    
239.0000      	41841.0042    	2618.39990    
240.0000      	41666.6667    	2597.19995    
241.0000      	41493.7759    	2622.00000    
242.0000      	41322.3140    	2653.69995    
243.0000      	41152.2634    	2617.80005    
244.0000      	40983.6066    	2607.50000    
245.0000      	40816.3265    	2632.39990    
246.0000      	40650.4065    	2618.89990    
247.0000      	40485.8300    	2616.00000    
248.0000      	40322.5806    	2594.89990    
249.0000      	40160.6426    	2633.50000    
250.0000      	40000.0000    	2643.19995    
251.0000      	39840.6375    	2603.39990    
252.0000      	39682.5397    	2604.60010    
253.0000      	39525.6917    	2653.30005    
254.0000      	39370.0787    	2605.89990    
255.0000      	39215.6863    	2597.69995    
256.0000      	39062.5000    	2607.89990    
257.0000      	38910.5058    	2619.39990    
258.0000      	38759.6899    	2623.89990    
259.0000      	38610.0386    	2632.60010    
260.0000      	38461.5385    	2604.89990    
261.0000      	38314.1762    	2608.00000    
262.0000      	38167.9389    	2591.69995    
263.0000      	38022.8137    	2608.19995    
264.0000      	37878.7879    	2626.69995    
265.0000      	37735.8491    	2620.60010    
266.0000      	37593.9850    	2611.00000    
267.0000      	37453.1835    	2621.69995    
268.0000      	37313.4328    	2605.69995    
269.0000      	37174.7212    	2626.30005    
270.0000      	37037.0370    	2600.19995    
271.0000      	36900.3690    	2618.39990    
272.0000      	36764.7059    	2604.10010    
273.0000      	36630.0366    	2613.89990    
274.0000      	36496.3504    	2616.19995    
275.0000      	36363.6364    	2612.69995    
276.0000      	36231.8841    	2619.30005    
277.0000      	36101.0830    	2619.00000    
278.0000      	35971.2230    	2600.30005    
279.0000      	35842.2939    	2610.00000    
280.0000      	35714.2857    	2617.69995    
281.0000      	35587.1886    	2604.00000    
282.0000      	35460.9929    	2606.60010    
283.0000      	35335.6890    	2601.39990    
284.0000      	35211.2676    	2601.30005    
285.0000      	35087.7193    	2580.50000    
286.0000      	34965.0350    	2588.00000    
287.0000      	34843.2056    	2597.69995    
288.0000      	34722.2222    	2601.69995    
289.0000      	34602.0761    	2589.19995    
290.0000      	34482.7586    	2614.60010    
291.0000      	34364.2612    	2593.50000    
292.0000      	34246.5753    	2604.69995    
293.0000      	34129.6928    	2607.30005    
294.0000      	34013.6054    	2622.30005    
295.0000      	33898.3051    	2602.80005    
296.0000      	33783.7838    	2616.19995    
297.0000      	33670.0337    	2653.89990    
298.0000      	33557.0470    	2586.80005    
299.0000      	33444.8161    	2601.50000    
300.0000      	33333.3333    	2631.19995    
301.0000      	33222.5914    	2608.10010    
302.0000      	33112.5828    	2616.00000    
303.0000      	33003.3003    	2599.89990    
304.0000      	32894.7368    	2602.19995    
305.0000      	32786.8852    	2602.69995    
306.0000      	32679.7386    	2604.39990    
307.0000      	32573.2899    	2613.69995    
308.0000      	32467.5325    	2585.00000    
309.0000      	32362.4595    	2648.69995    
310.0000      	32258.0645    	2613.10010    
311.0000      	32154.3408    	2612.39990    
312.0000      	32051.2821    	2597.89990    
313.0000      	31948.8818    	2616.39990    
314.0000      	31847.1338    	2602.39990    
315.0000      	31746.0317    	2627.89990    
316.0000      	31645.5696    	2605.30005    
317.0000      	31545.7413    	2593.89990    
318.0000      	31446.5409    	2603.69995    
319.0000      	31347.9624    	2615.10010    
320.0000      	31250.0000    	2628.50000    
321.0000      	31152.6480    	2608.69995    
322.0000      	31055.9006    	2594.69995    
323.0000      	30959.7523    	2600.30005    
324.0000      	30864.1975    	2646.00000    
325.0000      	30769.2308    	2605.19995    
326.0000      	30674.8466    	2589.10010    
327.0000      	30581.0398    	2607.00000    
328.0000      	30487.8049    	2598.80005    
329.0000      	30395.1368    	2607.39990    
330.0000      	30303.0303    	2616.69995    
331.0000      	30211.4804    	2615.10010    
332.0000      	30120.4819    	2625.00000    
333.0000      	30030.0300    	2639.60010    
334.0000      	29940.1198    	2605.80005    
335.0000      	29850.7463    	2618.10010    
336.0000      	29761.9048    	2609.19995    
337.0000      	29673.5905    	2620.39990    
338.0000      	29585.7988    	2618.10010    
339.0000      	29498.5251    	2604.50000    
340.0000      	29411.7647    	2605.69995    
341.0000      	29325.5132    	2615.39990    
342.0000      	29239.7661    	2601.50000    
343.0000      	29154.5190    	2611.80005    
344.0000      	29069.7674    	2632.89990    
345.0000      	28985.5072    	2666.00000    
346.0000      	28901.7341    	2628.89990    
347.0000      	28818.4438    	2608.19995    
348.0000      	28735.6322    	2632.89990    
349.0000      	28653.2951    	2692.89990    
350.0000      	28571.4286    	2740.30005    
351.0000      	28490.0285    	2653.39990    
352.0000      	28409.0909    	2654.00000    
353.0000      	28328.6119    	2614.80005    
354.0000      	28248.5876    	2632.30005    
355.0000      	28169.0141    	2644.89990    
356.0000      	28089.8876    	2615.80005    
357.0000      	28011.2045    	2765.00000    
358.0000      	27932.9609    	2796.89990    
359.0000      	27855.1532    	2679.30005    
360.0000      	27777.7778    	2665.39990    
361.0000      	27700.8310    	2646.39990    
362.0000      	27624.3094    	2694.60010    
363.0000      	27548.2094    	2615.10010    
364.0000      	27472.5275    	2617.80005    
365.0000      	27397.2603    	2615.00000    
366.0000      	27322.4044    	2616.80005    
367.0000      	27247.9564    	2653.69995    
368.0000      	27173.9130    	2648.50000    
369.0000      	27100.2710    	2684.69995    
370.0000      	27027.0270    	2625.39990    
371.0000      	26954.1779    	2609.10010    
372.0000      	26881.7204    	2687.30005    
373.0000      	26809.6515    	2617.10010    
374.0000      	26737.9679    	2628.19995    
375.0000      	26666.6667    	2608.30005    
376.0000      	26595.7447    	2607.80005    
377.0000      	26525.1989    	2633.60010    
378.0000      	26455.0265    	2624.80005    
379.0000      	26385.2243    	2629.30005    
380.0000      	26315.7895    	2725.00000    
381.0000      	26246.7192    	2858.60010    
382.0000      	26178.0105    	2650.30005    
383.0000      	26109.6606    	2642.19995    
384.0000      	26041.6667    	2631.39990    
385.0000      	25974.0260    	2670.10010    
386.0000      	25906.7358    	2681.30005    
387.0000      	25839.7933    	3925.50000    
388.0000      	25773.1959    	4079.30005    
389.0000      	25706.9409    	2832.19995    
390.0000      	25641.0256    	2781.50000    
391.0000      	25575.4476    	2667.60010    
392.0000      	25510.2041    	2609.80005    
393.0000      	25445.2926    	2625.30005    
394.0000      	25380.7107    	2637.69995    
395.0000      	25316.4557    	2870.19995    
396.0000      	25252.5253    	2749.10010    
397.0000      	25188.9169    	2654.39990    
398.0000      	25125.6281    	2616.19995    
399.0000      	25062.6566    	2652.89990    
400.0000      	25000.0000    	2695.19995    
401.0000      	24937.6559    	3571.69995    
402.0000      	24875.6219    	3339.50000    
403.0000      	24813.8958    	2754.69995    
404.0000      	24752.4752    	2770.69995    
405.0000      	24691.3580    	2609.80005    
406.0000      	24630.5419    	2620.69995    
407.0000      	24570.0246    	2628.50000    
408.0000      	24509.8039    	2616.80005    
409.0000      	24449.8778    	2608.00000    
410.0000      	24390.2439    	2632.19995    
411.0000      	24330.9002    	3068.50000    
412.0000      	24271.8447    	2768.60010    
413.0000      	24213.0751    	2751.39990    
414.0000      	24154.5894    	2705.80005    
415.0000      	24096.3855    	2623.80005    
416.0000      	24038.4615    	2664.89990    
417.0000      	23980.8153    	2613.30005    
418.0000      	23923.4450    	2615.10010    
419.0000      	23866.3484    	2601.30005    
420.0000      	23809.5238    	2655.60010    
421.0000      	23752.9691    	2606.30005    
422.0000      	23696.6825    	2629.60010    
423.0000      	23640.6619    	2612.60010    
424.0000      	23584.9057    	2621.39990    
425.0000      	23529.4118    	2661.30005    
426.0000      	23474.1784    	2684.00000    
427.0000      	23419.2037    	2702.19995    
428.0000      	23364.4860    	2611.19995    
429.0000      	23310.0233    	2625.89990    
430.0000      	23255.8140    	2617.30005    
431.0000      	23201.8561    	2639.19995    
432.0000      	23148.1481    	2626.60010    
433.0000      	23094.6882    	2650.00000    
434.0000      	23041.4747    	2621.80005    
435.0000      	22988.5057    	2630.60010    
436.0000      	22935.7798    	2613.50000    
437.0000      	22883.2952    	2697.00000    
438.0000      	22831.0502    	3111.39990    
439.0000      	22779.0433    	2781.00000    
440.0000      	22727.2727    	2684.19995    
441.0000      	22675.7370    	2655.60010    
442.0000      	22624.4344    	2903.19995    
443.0000      	22573.3634    	2840.80005    
444.0000      	22522.5225    	2716.69995    
445.0000      	22471.9101    	2680.69995    
446.0000      	22421.5247    	5472.00000    
447.0000      	22371.3647    	7970.10010    
448.0000      	22321.4286    	3873.19995    
449.0000      	22271.7149    	2743.00000    
450.0000      	22222.2222    	2652.19995    
451.0000      	22172.9490    	2638.89990    
452.0000      	22123.8938    	2633.19995    
453.0000      	22075.0552    	2746.89990    
454.0000      	22026.4317    	2724.89990    
455.0000      	21978.0220    	2624.10010    
456.0000      	21929.8246    	2646.69995    
457.0000      	21881.8381    	2732.19995    
458.0000      	21834.0611    	2707.30005    
459.0000      	21786.4924    	2639.60010    
460.0000      	21739.1304    	2631.19995    
461.0000      	21691.9740    	2651.19995    
462.0000      	21645.0216    	2689.50000    
463.0000      	21598.2721    	2660.00000    
464.0000      	21551.7241    	2726.60010    
465.0000      	21505.3763    	2701.60010    
466.0000      	21459.2275    	2666.60010    
467.0000      	21413.2762    	2711.60010    
468.0000      	21367.5214    	2723.39990    
469.0000      	21321.9616    	2677.10010    
470.0000      	21276.5957    	3357.60010    
471.0000      	21231.4225    	8232.90039    
472.0000      	21186.4407    	4519.79980    
473.0000      	21141.6490    	2827.39990    
474.0000      	21097.0464    	2656.19995    
475.0000      	21052.6316    	3083.80005    
476.0000      	21008.4034    	2743.19995    
477.0000      	20964.3606    	2654.39990    
478.0000      	20920.5021    	2665.00000    
479.0000      	20876.8267    	2830.89990    
480.0000      	20833.3333    	2704.00000    
481.0000      	20790.0208    	2865.50000    
482.0000      	20746.8880    	2929.60010    
483.0000      	20703.9337    	2808.50000    
484.0000      	20661.1570    	3077.19995    
485.0000      	20618.5567    	2750.60010    
486.0000      	20576.1317    	2748.19995    
487.0000      	20533.8809    	2765.19995    
488.0000      	20491.8033    	2809.30005    
489.0000      	20449.8978    	2778.30005    
490.0000      	20408.1633    	2653.50000    
491.0000      	20366.5988    	2681.80005    
492.0000      	20325.2033    	4327.89990    
493.0000      	20283.9757    	3395.39990    
494.0000      	20242.9150    	2729.00000    
495.0000      	20202.0202    	2709.69995    
496.0000      	20161.2903    	2866.69995    
497.0000      	20120.7243    	2666.69995    
498.0000      	20080.3213    	2699.60010    
499.0000      	20040.0802    	2637.00000    
500.0000      	20000.0000    	2818.10010    
501.0000      	19960.0798    	3232.39990    
502.0000      	19920.3187    	4536.29980    
503.0000      	19880.7157    	3267.39990    
504.0000      	19841.2698    	5440.70020    
505.0000      	19801.9802    	5060.39990    
506.0000      	19762.8458    	2887.60010    
507.0000      	19723.8659    	2709.69995    
508.0000      	19685.0394    	3608.39990    
509.0000      	19646.3654    	3116.00000    
510.0000      	19607.8431    	2661.60010    
511.0000      	19569.4716    	2700.69995    
512.0000      	19531.2500    	3374.19995    
513.0000      	19493.1774    	2734.80005    
514.0000      	19455.2529    	2734.00000    
515.0000      	19417.4757    	3271.19995    
516.0000      	19379.8450    	3001.80005    
517.0000      	19342.3598    	2668.50000    
518.0000      	19305.0193    	2663.00000    
519.0000      	19267.8227    	3487.00000    
520.0000      	19230.7692    	3170.00000    
521.0000      	19193.8580    	3683.00000    
522.0000      	19157.0881    	2929.50000    
523.0000      	19120.4589    	2927.00000    
524.0000      	19083.9695    	2935.39990    
525.0000      	19047.6190    	2651.00000    
526.0000      	19011.4068    	2622.19995    
527.0000      	18975.3321    	2652.30005    
528.0000      	18939.3939    	2672.89990    
529.0000      	18903.5917    	2641.19995    
530.0000      	18867.9245    	2797.69995    
531.0000      	18832.3917    	2832.19995    
532.0000      	18796.9925    	2717.39990    
533.0000      	18761.7261    	3334.19995    
534.0000      	18726.5918    	4034.00000    
535.0000      	18691.5888    	4998.79980    
536.0000      	18656.7164    	2885.39990    
537.0000      	18621.9739    	2799.30005    
538.0000      	18587.3606    	2940.60010    
539.0000      	18552.8757    	2689.30005    
540.0000      	18518.5185    	2653.19995    
541.0000      	18484.2884    	2883.50000    
542.0000      	18450.1845    	2789.30005    
543.0000      	18416.2063    	2716.39990    
544.0000      	18382.3529    	3445.80005    
545.0000      	18348.6239    	2731.10010    
546.0000      	18315.0183    	2686.60010    
547.0000      	18281.5356    	2644.39990    
548.0000      	18248.1752    	2633.69995    
549.0000      	18214.9362    	2622.39990    
550.0000      	18181.8182    	2678.00000    
551.0000      	18148.8203    	2624.60010    
552.0000      	18115.9420    	2614.10010    
553.0000      	18083.1826    	2621.89990    
554.0000      	18050.5415    	2648.19995    
555.0000      	18018.0180    	2631.30005    
556.0000      	17985.6115    	2612.89990    
557.0000      	17953.3214    	2698.19995    
558.0000      	17921.1470    	2636.89990    
559.0000      	17889.0877    	2650.19995    
560.0000      	17857.1429    	2661.19995    
561.0000      	17825.3119    	2637.50000    
562.0000      	17793.5943    	2615.19995    
563.0000      	17761.9893    	2639.39990    
564.0000      	17730.4965    	2633.00000    
565.0000      	17699.1150    	2625.69995    
566.0000      	17667.8445    	2642.89990    
567.0000      	17636.6843    	2634.60010    
568.0000      	17605.6338    	2639.39990    
569.0000      	17574.6924    	2629.69995    
570.0000      	17543.8596    	2645.30005    
571.0000      	17513.1349    	2630.00000    
572.0000      	17482.5175    	2630.80005    
573.0000      	17452.0070    	2617.89990    
574.0000      	17421.6028    	2714.69995    
575.0000      	17391.3043    	2640.19995    
576.0000      	17361.1111    	2652.19995    
577.0000      	17331.0225    	2649.00000    
578.0000      	17301.0381    	2653.19995    
579.0000      	17271.1572    	2629.50000    
580.0000      	17241.3793    	2660.80005    
581.0000      	17211.7040    	2645.80005    
582.0000      	17182.1306    	2643.10010    
583.0000      	17152.6587    	2652.00000    
584.0000      	17123.2877    	2659.69995    
585.0000      	17094.0171    	2647.50000    
586.0000      	17064.8464    	2641.10010    
587.0000      	17035.7751    	2632.39990    
588.0000      	17006.8027    	2670.89990    
589.0000      	16977.9287    	2641.39990    
590.0000      	16949.1525    	2665.69995    
591.0000      	16920.4738    	2710.80005    
592.0000      	16891.8919    	2666.30005    
593.0000      	16863.4064    	2648.50000    
594.0000      	16835.0168    	2673.39990    
595.0000      	16806.7227    	2676.60010    
596.0000      	16778.5235    	2644.50000    
597.0000      	16750.4188    	2672.30005    
598.0000      	16722.4080    	2668.10010    
599.0000      	16694.4908    	2654.10010    
600.0000      	16666.6667    	2671.30005    
601.0000      	16638.9351    	2654.89990    
602.0000      	16611.2957    	2657.30005    
603.0000      	16583.7479    	2650.00000    
604.0000      	16556.2914    	2662.50000    
605.0000      	16528.9256    	2658.39990    
606.0000      	16501.6502    	2686.30005    
607.0000      	16474.4646    	2658.19995    
608.0000      	16447.3684    	2708.89990    
609.0000      	16420.3612    	2685.10010    
610.0000      	16393.4426    	2728.69995    
611.0000      	16366.6121    	2715.10010    
612.0000      	16339.8693    	2716.60010    
613.0000      	16313.2137    	2723.50000    
614.0000      	16286.6450    	2711.10010    
615.0000      	16260.1626    	2730.19995    
616.0000      	16233.7662    	2738.39990    
617.0000      	16207.4554    	2763.50000    
618.0000      	16181.2298    	2773.80005    
619.0000      	16155.0889    	2770.10010    
620.0000      	16129.0323    	2801.69995    
621.0000      	16103.0596    	2781.69995    
622.0000      	16077.1704    	2801.69995    
623.0000      	16051.3644    	2838.89990    
624.0000      	16025.6410    	2930.19995    
625.0000      	16000.0000    	2926.39990    
626.0000      	15974.4409    	2931.80005    
627.0000      	15948.9633    	3071.80005    
628.0000      	15923.5669    	3142.19995    
629.0000      	15898.2512    	3103.80005    
630.0000      	15873.0159    	3192.10010    
631.0000      	15847.8605    	3571.19995    
632.0000      	15822.7848    	4432.20020    
633.0000      	15797.7883    	33988.69922   
634.0000      	15772.8707    	65535.00000   
635.0000      	15748.0315    	52015.00000   
636.0000      	15723.2704    	11135.59961   
637.0000      	15698.5871    	7038.29980    
638.0000      	15673.9812    	5216.70020    
639.0000      	15649.4523    	4442.50000    
640.0000      	15625.0000    	3735.10010    
641.0000      	15600.6240    	3392.89990    
642.0000      	15576.3240    	3071.60010    
643.0000      	15552.0995    	2881.00000    
644.0000      	15527.9503    	2826.30005    
645.0000      	15503.8760    	2793.19995    
646.0000      	15479.8762    	2775.80005    
647.0000      	15455.9505    	2768.00000    
648.0000      	15432.0988    	2767.10010    
649.0000      	15408.3205    	2727.80005    
650.0000      	15384.6154    	2732.80005    
651.0000      	15360.9831    	2715.50000    
652.0000      	15337.4233    	2726.69995    
653.0000      	15313.9357    	2718.19995    
654.0000      	15290.5199    	2753.19995    
655.0000      	15267.1756    	2706.10010    
656.0000      	15243.9024    	2685.80005    
657.0000      	15220.7002    	2706.19995    
658.0000      	15197.5684    	2651.80005    
659.0000      	15174.5068    	2700.00000    
660.0000      	15151.5152    	2664.00000    
661.0000      	15128.5930    	2676.69995    
662.0000      	15105.7402    	2692.30005    
663.0000      	15082.9563    	2672.00000    
664.0000      	15060.2410    	2660.10010    
665.0000      	15037.5940    	2647.89990    
666.0000      	15015.0150    	2655.19995    
667.0000      	14992.5037    	2670.00000    
668.0000      	14970.0599    	2705.30005    
669.0000      	14947.6831    	2706.80005    
670.0000      	14925.3731    	2655.60010    
671.0000      	14903.1297    	2670.60010    
672.0000      	14880.9524    	2717.00000    
673.0000      	14858.8410    	2702.89990    
674.0000      	14836.7953    	2676.50000    
675.0000      	14814.8148    	2714.10010    
676.0000      	14792.8994    	2696.19995    
677.0000      	14771.0487    	2686.39990    
678.0000      	14749.2625    	2657.39990    
679.0000      	14727.5405    	2702.10010    
680.0000      	14705.8824    	2696.89990    
681.0000      	14684.2878    	2644.30005    
682.0000      	14662.7566    	2655.39990    
683.0000      	14641.2884    	2748.89990    
684.0000      	14619.8830    	2661.89990    
685.0000      	14598.5401    	2681.60010    
686.0000      	14577.2595    	2708.19995    
687.0000      	14556.0408    	2711.60010    
688.0000      	14534.8837    	2693.89990    
689.0000      	14513.7881    	2722.00000    
690.0000      	14492.7536    	2720.00000    
691.0000      	14471.7800    	2739.50000    
692.0000      	14450.8671    	2722.89990    
693.0000      	14430.0144    	2763.69995    
694.0000      	14409.2219    	2801.39990    
695.0000      	14388.4892    	2835.60010    
696.0000      	14367.8161    	2781.19995    
697.0000      	14347.2023    	2777.50000    
698.0000      	14326.6476    	2818.60010    
699.0000      	14306.1516    	2855.39990    
700.0000      	14285.7143    	2824.80005    
701.0000      	14265.3352    	2839.19995    
702.0000      	14245.0142    	2847.50000    
703.0000      	14224.7511    	2870.00000    
704.0000      	14204.5455    	3229.50000    
705.0000      	14184.3972    	3504.60010    
706.0000      	14164.3059    	3079.00000    
707.0000      	14144.2716    	4886.00000    
708.0000      	14124.2938    	15745.59961   
709.0000      	14104.3724    	10722.29980   
710.0000      	14084.5070    	3376.30005    
711.0000      	14064.6976    	3090.39990    
712.0000      	14044.9438    	3036.89990    
713.0000      	14025.2454    	3048.30005    
714.0000      	14005.6022    	2973.69995    
715.0000      	13986.0140    	2997.60010    
716.0000      	13966.4804    	2992.00000    
717.0000      	13947.0014    	2990.19995    
718.0000      	13927.5766    	3060.39990    
719.0000      	13908.2058    	3141.00000    
720.0000      	13888.8889    	3258.89990    
721.0000      	13869.6255    	3045.00000    
722.0000      	13850.4155    	3086.39990    
723.0000      	13831.2586    	3129.00000    
724.0000      	13812.1547    	3143.80005    
725.0000      	13793.1034    	3351.10010    
726.0000      	13774.1047    	3502.50000    
727.0000      	13755.1582    	4018.60010    
728.0000      	13736.2637    	3198.00000    
729.0000      	13717.4211    	3401.19995    
730.0000      	13698.6301    	4760.70020    
731.0000      	13679.8906    	3910.30005    
732.0000      	13661.2022    	3327.69995    
733.0000      	13642.5648    	3287.19995    
734.0000      	13623.9782    	3134.89990    
735.0000      	13605.4422    	3151.60010    
736.0000      	13586.9565    	3142.89990    
737.0000      	13568.5210    	3154.39990    
738.0000      	13550.1355    	3192.50000    
739.0000      	13531.7997    	3214.80005    
740.0000      	13513.5135    	3194.89990    
741.0000      	13495.2767    	3197.30005    
742.0000      	13477.0889    	3107.69995    
743.0000      	13458.9502    	3112.69995    
744.0000      	13440.8602    	3147.69995    
745.0000      	13422.8188    	3161.89990    
746.0000      	13404.8257    	3371.80005    
747.0000      	13386.8809    	3112.19995    
748.0000      	13368.9840    	3125.69995    
749.0000      	13351.1348    	3304.89990    
750.0000      	13333.3333    	3326.00000    
751.0000      	13315.5792    	4246.70020    
752.0000      	13297.8723    	3213.30005    
753.0000      	13280.2125    	3052.39990    
754.0000      	13262.5995    	3234.69995    
755.0000      	13245.0331    	3580.80005    
756.0000      	13227.5132    	3877.60010    
757.0000      	13210.0396    	3240.89990    
758.0000      	13192.6121    	2961.80005    
759.0000      	13175.2306    	2921.39990    
760.0000      	13157.8947    	2929.39990    
761.0000      	13140.6045    	2868.30005    
762.0000      	13123.3596    	2872.89990    
763.0000      	13106.1599    	2849.00000    
764.0000      	13089.0052    	2829.10010    
765.0000      	13071.8954    	2807.80005    
766.0000      	13054.8303    	2790.00000    
767.0000      	13037.8096    	2802.19995    
768.0000      	13020.8333    	2786.69995    
769.0000      	13003.9012    	2757.89990    
770.0000      	12987.0130    	2748.39990    
771.0000      	12970.1686    	2760.80005    
772.0000      	12953.3679    	2699.19995    
773.0000      	12936.6106    	2701.60010    
774.0000      	12919.8966    	2687.39990    
775.0000      	12903.2258    	2702.50000    
776.0000      	12886.5979    	2665.69995    
777.0000      	12870.0129    	2642.80005    
778.0000      	12853.4704    	2671.30005    
779.0000      	12836.9705    	2639.69995    
780.0000      	12820.5128    	2656.39990    
781.0000      	12804.0973    	2651.80005    
782.0000      	12787.7238    	2633.39990    
783.0000      	12771.3921    	2643.19995    
784.0000      	12755.1020    	2614.19995    
785.0000      	12738.8535    	2608.10010    
786.0000      	12722.6463    	2648.00000    
787.0000      	12706.4803    	2647.10010    
788.0000      	12690.3553    	2617.10010    
789.0000      	12674.2712    	2640.50000    
790.0000      	12658.2278    	2638.39990    
791.0000      	12642.2250    	2638.30005    
792.0000      	12626.2626    	2646.30005    
793.0000      	12610.3405    	2655.69995    
794.0000      	12594.4584    	2748.00000    
795.0000      	12578.6164    	2685.69995    
796.0000      	12562.8141    	2774.00000    
797.0000      	12547.0514    	2706.80005    
798.0000      	12531.3283    	2674.60010    
799.0000      	12515.6446    	2675.19995    
800.0000      	12500.0000    	2685.50000    
801.0000      	12484.3945    	2666.10010    
802.0000      	12468.8279    	2685.19995    
803.0000      	12453.3001    	2690.69995    
804.0000      	12437.8109    	2674.00000    
805.0000      	12422.3602    	2676.50000    
806.0000      	12406.9479    	2685.60010    
807.0000      	12391.5737    	2691.39990    
808.0000      	12376.2376    	2699.69995    
809.0000      	12360.9394    	2680.19995    
810.0000      	12345.6790    	2706.19995    
811.0000      	12330.4562    	2736.30005    
812.0000      	12315.2709    	2712.30005    
813.0000      	12300.1230    	2745.19995    
814.0000      	12285.0123    	2774.30005    
815.0000      	12269.9387    	2797.69995    
816.0000      	12254.9020    	2841.80005    
817.0000      	12239.9021    	2768.19995    
818.0000      	12224.9389    	2777.60010    
819.0000      	12210.0122    	2742.10010    
820.0000      	12195.1220    	2680.50000    
821.0000      	12180.2680    	2673.30005    
822.0000      	12165.4501    	2634.80005    
823.0000      	12150.6683    	2644.69995    
824.0000      	12135.9223    	2634.89990    
825.0000      	12121.2121    	2623.89990    
826.0000      	12106.5375    	2624.60010    
827.0000      	12091.8984    	2661.39990    
828.0000      	12077.2947    	2697.69995    
829.0000      	12062.7262    	2671.50000    
830.0000      	12048.1928    	2673.00000    
831.0000      	12033.6943    	2665.50000    
832.0000      	12019.2308    	2795.10010    
833.0000      	12004.8019    	2767.00000    
834.0000      	11990.4077    	2625.30005    
835.0000      	11976.0479    	2611.60010    
836.0000      	11961.7225    	2646.80005    
837.0000      	11947.4313    	2651.50000    
838.0000      	11933.1742    	2789.19995    
839.0000      	11918.9511    	2874.30005    
840.0000      	11904.7619    	2838.60010    
841.0000      	11890.6064    	2659.39990    
842.0000      	11876.4846    	2675.69995    
843.0000      	11862.3962    	2710.19995    
844.0000      	11848.3412    	2751.89990    
845.0000      	11834.3195    	2645.69995    
846.0000      	11820.3310    	2614.80005    
847.0000      	11806.3754    	2634.69995    
848.0000      	11792.4528    	2637.00000    
849.0000      	11778.5630    	2667.80005    
850.0000      	11764.7059    	2789.50000    
851.0000      	11750.8813    	2865.69995    
852.0000      	11737.0892    	2790.80005    
853.0000      	11723.3294    	2654.69995    
854.0000      	11709.6019    	2640.19995    
855.0000      	11695.9064    	2647.19995    
856.0000      	11682.2430    	2656.10010    
857.0000      	11668.6114    	2612.30005    
858.0000      	11655.0117    	2621.69995    
859.0000      	11641.4435    	2674.60010    
860.0000      	11627.9070    	2680.50000    
861.0000      	11614.4019    	2722.39990    
862.0000      	11600.9281    	2672.10010    
863.0000      	11587.4855    	2623.89990    
864.0000      	11574.0741    	2691.69995    
865.0000      	11560.6936    	2698.30005    
866.0000      	11547.3441    	2771.69995    
867.0000      	11534.0254    	2827.50000    
868.0000      	11520.7373    	2725.19995    
869.0000      	11507.4799    	2643.60010    
870.0000      	11494.2529    	2696.30005    
871.0000      	11481.0563    	2661.19995    
872.0000      	11467.8899    	2620.89990    
873.0000      	11454.7537    	2622.60010    
874.0000      	11441.6476    	2636.10010    
875.0000      	11428.5714    	2658.00000    
876.0000      	11415.5251    	2612.69995    
877.0000      	11402.5086    	2629.60010    
878.0000      	11389.5216    	2725.30005    
879.0000      	11376.5643    	2756.30005    
880.0000      	11363.6364    	2814.50000    
881.0000      	11350.7378    	2677.80005    
882.0000      	11337.8685    	2645.60010    
883.0000      	11325.0283    	2633.89990    
884.0000      	11312.2172    	2623.89990    
885.0000      	11299.4350    	2620.60010    
886.0000      	11286.6817    	2672.00000    
887.0000      	11273.9572    	2700.60010    
888.0000      	11261.2613    	2654.50000    
889.0000      	11248.5939    	2641.69995    
890.0000      	11235.9551    	2642.89990    
891.0000      	11223.3446    	2642.10010    
892.0000      	11210.7623    	2629.60010    
893.0000      	11198.2083    	2644.60010    
894.0000      	11185.6823    	2648.30005    
895.0000      	11173.1844    	2629.69995    
896.0000      	11160.7143    	2637.69995    
897.0000      	11148.2720    	2628.80005    
898.0000      	11135.8575    	2632.60010    
899.0000      	11123.4705    	2629.89990    
900.0000      	11111.1111    	2613.50000    
901.0000      	11098.7791    	2604.60010    
902.0000      	11086.4745    	2634.69995    
903.0000      	11074.1971    	2629.89990    
904.0000      	11061.9469    	2654.39990    
905.0000      	11049.7238    	2611.69995    
906.0000      	11037.5276    	2624.30005    
907.0000      	11025.3583    	2600.60010    
908.0000      	11013.2159    	2612.10010    
909.0000      	11001.1001    	2607.80005    
910.0000      	10989.0110    	2623.39990    
911.0000      	10976.9484    	2662.60010    
912.0000      	10964.9123    	2616.89990    
913.0000      	10952.9025    	2627.30005    
914.0000      	10940.9190    	2624.19995    
915.0000      	10928.9617    	2628.10010    
916.0000      	10917.0306    	2639.60010    
917.0000      	10905.1254    	2636.39990    
918.0000      	10893.2462    	2628.10010    
919.0000      	10881.3928    	2604.50000    
920.0000      	10869.5652    	2613.69995    
921.0000      	10857.7633    	2698.19995    
922.0000      	10845.9870    	2645.89990    
923.0000      	10834.2362    	2629.00000    
924.0000      	10822.5108    	2618.69995    
925.0000      	10810.8108    	2621.60010    
926.0000      	10799.1361    	2635.19995    
927.0000      	10787.4865    	2625.69995    
928.0000      	10775.8621    	2640.80005    
929.0000      	10764.2626    	2617.80005    
930.0000      	10752.6882    	2607.30005    
931.0000      	10741.1386    	2627.89990    
932.0000      	10729.6137    	2629.60010    
933.0000      	10718.1136    	2617.50000    
934.0000      	10706.6381    	2595.30005    
935.0000      	10695.1872    	2612.19995    
936.0000      	10683.7607    	2612.30005    
937.0000      	10672.3586    	2624.10010    
938.0000      	10660.9808    	2660.19995    
939.0000      	10649.6273    	2629.10010    
940.0000      	10638.2979    	2633.69995    
941.0000      	10626.9926    	2625.50000    
942.0000      	10615.7113    	2620.50000    
943.0000      	10604.4539    	2635.00000    
944.0000      	10593.2203    	2609.10010    
945.0000      	10582.0106    	2617.10010    
946.0000      	10570.8245    	2625.19995    
947.0000      	10559.6621    	2626.69995    
948.0000      	10548.5232    	2632.60010    
949.0000      	10537.4078    	2631.50000    
950.0000      	10526.3158    	2617.00000    
951.0000      	10515.2471    	2615.69995    
952.0000      	10504.2017    	2650.80005    
953.0000      	10493.1794    	2626.80005    
954.0000      	10482.1803    	2692.00000    
955.0000      	10471.2042    	2612.89990    
956.0000      	10460.2510    	2629.69995    
957.0000      	10449.3208    	2627.50000    
958.0000      	10438.4134    	2629.10010    
959.0000      	10427.5287    	2630.69995    
960.0000      	10416.6667    	2616.10010    
961.0000      	10405.8273    	2624.60010    
962.0000      	10395.0104    	2607.30005    
963.0000      	10384.2160    	2637.60010    
964.0000      	10373.4440    	2621.30005    
965.0000      	10362.6943    	2638.00000    
966.0000      	10351.9669    	2619.10010    
967.0000      	10341.2616    	2636.89990    
968.0000      	10330.5785    	2634.19995    
969.0000      	10319.9174    	2624.10010    
970.0000      	10309.2784    	2605.10010    
971.0000      	10298.6612    	2618.89990    
972.0000      	10288.0658    	2624.39990    
973.0000      	10277.4923    	2633.60010    
974.0000      	10266.9405    	2623.10010    
975.0000      	10256.4103    	2615.19995    
976.0000      	10245.9016    	2646.39990    
977.0000      	10235.4145    	2617.60010    
978.0000      	10224.9489    	2622.19995    
979.0000      	10214.5046    	2628.60010    
980.0000      	10204.0816    	2632.69995    
981.0000      	10193.6799    	2617.19995    
982.0000      	10183.2994    	2621.69995    
983.0000      	10172.9400    	2628.50000    
984.0000      	10162.6016    	2640.60010    
985.0000      	10152.2843    	2606.80005    
986.0000      	10141.9878    	2627.69995    
987.0000      	10131.7123    	2625.69995    
988.0000      	10121.4575    	2626.60010    
989.0000      	10111.2235    	2608.50000    
990.0000      	10101.0101    	2645.69995    
991.0000      	10090.8174    	2632.19995    
992.0000      	10080.6452    	2630.30005    
993.0000      	10070.4935    	2621.80005    
994.0000      	10060.3622    	2626.00000    
995.0000      	10050.2513    	2636.10010    
996.0000      	10040.1606    	2695.89990    
997.0000      	10030.0903    	2638.39990    
998.0000      	10020.0401    	2614.19995    
999.0000      	10010.0100    	2640.39990    
1000.0000     	10000.0000    	2619.19995    
1001.0000     	9990.0100     	2613.00000    
1002.0000     	9980.0399     	2629.50000    
1003.0000     	9970.0897     	2635.60010    
1004.0000     	9960.1594     	2619.00000    
1005.0000     	9950.2488     	2632.30005    
1006.0000     	9940.3579     	2649.30005    
1007.0000     	9930.4866     	2614.60010    
1008.0000     	9920.6349     	2619.80005    
1009.0000     	9910.8028     	2633.89990    
1010.0000     	9900.9901     	2624.50000    
1011.0000     	9891.1968     	2628.89990    
1012.0000     	9881.4229     	2622.60010    
1013.0000     	9871.6683     	2653.00000    
1014.0000     	9861.9329     	2635.60010    
1015.0000     	9852.2167     	2637.10010    
1016.0000     	9842.5197     	2617.19995    
1017.0000     	9832.8417     	2625.00000    
1018.0000     	9823.1827     	2641.50000    
1019.0000     	9813.5427     	2627.69995    
1020.0000     	9803.9216     	2620.30005    
1021.0000     	9794.3193     	2637.60010    
1022.0000     	9784.7358     	2616.00000    
1023.0000     	9775.1711     	2600.00000    
1024.0000     	9765.6250     	2617.30005    
1025.0000     	9756.0976     	2831.89990    
1026.0000     	9746.5887     	2622.30005    
1027.0000     	9737.0983     	2613.50000    
1028.0000     	9727.6265     	2630.60010    
1029.0000     	9718.1730     	2625.00000    
1030.0000     	9708.7379     	2617.00000    
1031.0000     	9699.3210     	2617.69995    
1032.0000     	9689.9225     	2595.50000    
1033.0000     	9680.5421     	2612.60010    
1034.0000     	9671.1799     	2632.69995    
1035.0000     	9661.8357     	2636.69995    
1036.0000     	9652.5097     	2624.10010    
1037.0000     	9643.2015     	2634.60010    
1038.0000     	9633.9114     	2609.50000    
1039.0000     	9624.6391     	2619.19995    
1040.0000     	9615.3846     	2637.69995    
1041.0000     	9606.1479     	2590.69995    
1042.0000     	9596.9290     	2623.89990    
1043.0000     	9587.7277     	2623.10010    
1044.0000     	9578.5441     	2628.80005    
1045.0000     	9569.3780     	2622.00000    
1046.0000     	9560.2294     	2636.30005    
1047.0000     	9551.0984     	2632.00000    
1048.0000     	9541.9847     	2644.50000    
1049.0000     	9532.8885     	2627.19995    
1050.0000     	9523.8095     	2624.10010    
1051.0000     	9514.7479     	2639.30005    
1052.0000     	9505.7034     	2616.30005    
1053.0000     	9496.6762     	2631.19995    
1054.0000     	9487.6660     	2630.10010    
1055.0000     	9478.6730     	2639.50000    
1056.0000     	9469.6970     	2667.39990    
1057.0000     	9460.7379     	2619.69995    
1058.0000     	9451.7958     	2637.60010    
1059.0000     	9442.8706     	2625.80005    
1060.0000     	9433.9623     	2635.89990    
1061.0000     	9425.0707     	2614.60010    
1062.0000     	9416.1959     	2652.10010    
1063.0000     	9407.3377     	2626.89990    
1064.0000     	9398.4962     	2622.80005    
1065.0000     	9389.6714     	2624.19995    
1066.0000     	9380.8630     	2622.60010    
1067.0000     	9372.0712     	2635.69995    
1068.0000     	9363.2959     	2637.10010    
1069.0000     	9354.5370     	2616.60010    
1070.0000     	9345.7944     	2666.00000    
1071.0000     	9337.0682     	2628.50000    
1072.0000     	9328.3582     	2627.50000    
1073.0000     	9319.6645     	2635.00000    
1074.0000     	9310.9870     	2646.50000    
1075.0000     	9302.3256     	2628.39990    
1076.0000     	9293.6803     	2613.69995    
1077.0000     	9285.0511     	2615.80005    
1078.0000     	9276.4378     	2610.89990    
1079.0000     	9267.8406     	2621.69995    
1080.0000     	9259.2593     	2625.50000    
1081.0000     	9250.6938     	2647.89990    
1082.0000     	9242.1442     	2666.19995    
1083.0000     	9233.6103     	2640.50000    
1084.0000     	9225.0923     	2627.69995    
1085.0000     	9216.5899     	2639.80005    
1086.0000     	9208.1031     	2631.80005    
1087.0000     	9199.6320     	2640.60010    
1088.0000     	9191.1765     	2667.30005    
1089.0000     	9182.7365     	2612.89990    
1090.0000     	9174.3119     	2612.60010    
1091.0000     	9165.9028     	2620.00000    
1092.0000     	9157.5092     	2633.30005    
1093.0000     	9149.1308     	2645.00000    
1094.0000     	9140.7678     	2602.50000    
1095.0000     	9132.4201     	2634.30005    
1096.0000     	9124.0876     	2637.80005    
1097.0000     	9115.7703     	2617.69995    
1098.0000     	9107.4681     	2628.10010    
1099.0000     	9099.1811     	2636.19995    
1100.0000     	9090.9091     	2634.39990    
1101.0000     	9082.6521     	2622.30005    
1102.0000     	9074.4102     	2625.10010    
1103.0000     	9066.1831     	2599.30005    
1104.0000     	9057.9710     	2637.50000    
1105.0000     	9049.7738     	2617.00000    
1106.0000     	9041.5913     	2642.19995    
1107.0000     	9033.4237     	2636.30005    
1108.0000     	9025.2708     	2621.00000    
1109.0000     	9017.1326     	2622.50000    
1110.0000     	9009.0090     	2641.80005    
1111.0000     	9000.9001     	2619.39990    
1112.0000     	8992.8058     	2672.50000    
1113.0000     	8984.7260     	2667.00000    
1114.0000     	8976.6607     	2634.19995    
1115.0000     	8968.6099     	2629.60010    
1116.0000     	8960.5735     	2631.30005    
1117.0000     	8952.5515     	2597.50000    
1118.0000     	8944.5438     	2625.30005    
1119.0000     	8936.5505     	2641.60010    
1120.0000     	8928.5714     	2704.60010    
1121.0000     	8920.6066     	2643.89990    
1122.0000     	8912.6560     	2634.50000    
1123.0000     	8904.7195     	2628.00000    
1124.0000     	8896.7972     	2618.10010    
1125.0000     	8888.8889     	2603.00000    
1126.0000     	8880.9947     	2636.80005    
1127.0000     	8873.1145     	2689.39990    
1128.0000     	8865.2482     	2621.39990    
1129.0000     	8857.3959     	2627.69995    
1130.0000     	8849.5575     	2635.60010    
1131.0000     	8841.7330     	2639.30005    
1132.0000     	8833.9223     	2635.19995    
1133.0000     	8826.1253     	2658.30005    
1134.0000     	8818.3422     	2614.00000    
1135.0000     	8810.5727     	2638.80005    
1136.0000     	8802.8169     	2640.60010    
1137.0000     	8795.0748     	2641.00000    
