[C:\Users\Physics-Lab\Desktop\Programs\Hyun\R-Tmeasurement-4pt_325.exe 1 1 221125_cl.dat 1e-2 30 300 3 ]

Time(sec)	Temperature(K)	     Resistance(Ohm)	    Current(A)  TempError(K)	ResError(Ohm)	CurrError(A)
2.364	300.2	3.15E-03	1.00E-02	0	0.00000000e+000   0.0000e+000	
5.42	300.22	2.87E-03	1.00E-02	0	0.00000000e+000   0.0000e+000	
7.774	300.5	3.05E-03	1.00E-02	0	0.00000000e+000   0.0000e+000	
10.147	300.84	3.02E-03	1.00E-02	0	0.00000000e+000   0.0000e+000	
12.547	301.19	3.11E-03	1.00E-02	0	0.00000000e+000   0.0000e+000	
14.948	301.51	3.10E-03	1.00E-02	0	0.00000000e+000   0.0000e+000	
17.353	301.8	3.26E-03	1.00E-02	0	0.00000000e+000   0.0000e+000	
19.75	302.06	3.17E-03	1.00E-02	0	0.00000000e+000   0.0000e+000	
22.152	302.28	3.23E-03	1.00E-02	0	0.00000000e+000   0.0000e+000	
24.551	302.49	3.01E-03	1.00E-02	0	0.00000000e+000   0.0000e+000	
26.954	302.68	3.15E-03	1.00E-02	0	0.00000000e+000   0.0000e+000	
29.359	302.85	3.09E-03	1.00E-02	0	0.00000000e+000   0.0000e+000	
31.758	303.01	3.18E-03	1.00E-02	0	0.00000000e+000   0.0000e+000	
34.154	303.16	3.09E-03	1.00E-02	0	0.00000000e+000   0.0000e+000	
36.556	303.29	3.14E-03	1.00E-02	0	0.00000000e+000   0.0000e+000	
38.953	303.41	3.18E-03	1.00E-02	0	0.00000000e+000   0.0000e+000	
41.356	303.52	3.21E-03	1.00E-02	0	0.00000000e+000   0.0000e+000	
43.753	303.62	3.18E-03	1.00E-02	0	0.00000000e+000   0.0000e+000	
46.154	303.71	3.16E-03	1.00E-02	0	0.00000000e+000   0.0000e+000	
48.554	303.79	3.32E-03	1.00E-02	0	0.00000000e+000   0.0000e+000	
50.956	303.86	3.10E-03	1.00E-02	0	0.00000000e+000   0.0000e+000	
53.359	303.92	3.05E-03	1.00E-02	0	0.00000000e+000   0.0000e+000	
55.757	303.98	3.06E-03	1.00E-02	0	0.00000000e+000   0.0000e+000	
58.156	304.03	3.08E-03	1.00E-02	0	0.00000000e+000   0.0000e+000	
60.557	304.07	3.31E-03	1.00E-02	0	0.00000000e+000   0.0000e+000	
62.957	304.1	3.13E-03	1.00E-02	0	0.00000000e+000   0.0000e+000	
65.361	304.13	3.11E-03	1.00E-02	0	0.00000000e+000   0.0000e+000	
67.758	304.16	3.13E-03	1.00E-02	0	0.00000000e+000   0.0000e+000	
70.161	304.18	3.07E-03	1.00E-02	0	0.00000000e+000   0.0000e+000	
72.559	304.19	3.05E-03	1.00E-02	0	0.00000000e+000   0.0000e+000	
74.962	304.2	3.17E-03	1.00E-02	0	0.00000000e+000   0.0000e+000	
77.365	304.2	3.06E-03	1.00E-02	0	0.00000000e+000   0.0000e+000	
79.764	304.2	3.07E-03	1.00E-02	0	0.00000000e+000   0.0000e+000	
82.166	304.2	3.13E-03	1.00E-02	0	0.00000000e+000   0.0000e+000	
84.562	304.19	3.00E-03	1.00E-02	0	0.00000000e+000   0.0000e+000	
86.964	304.18	3.21E-03	1.00E-02	0	0.00000000e+000   0.0000e+000	
89.37	304.16	3.27E-03	1.00E-02	0	0.00000000e+000   0.0000e+000	
91.763	304.14	3.26E-03	1.00E-02	0	0.00000000e+000   0.0000e+000	
94.163	304.12	3.15E-03	1.00E-02	0	0.00000000e+000   0.0000e+000	
96.564	304.1	3.13E-03	1.00E-02	0	0.00000000e+000   0.0000e+000	
98.963	304.07	3.29E-03	1.00E-02	0	0.00000000e+000   0.0000e+000	
101.367	304.04	3.22E-03	1.00E-02	0	0.00000000e+000   0.0000e+000	
103.765	304	3.18E-03	1.00E-02	0	0.00000000e+000   0.0000e+000	
106.166	303.97	3.11E-03	1.00E-02	0	0.00000000e+000   0.0000e+000	
108.566	303.93	3.17E-03	1.00E-02	0	0.00000000e+000   0.0000e+000	
110.966	303.89	3.29E-03	1.00E-02	0	0.00000000e+000   0.0000e+000	
113.37	303.85	3.21E-03	1.00E-02	0	0.00000000e+000   0.0000e+000	
115.768	303.8	3.20E-03	1.00E-02	0	0.00000000e+000   0.0000e+000	
118.167	303.75	3.29E-03	1.00E-02	0	0.00000000e+000   0.0000e+000	
120.57	303.71	3.33E-03	1.00E-02	0	0.00000000e+000   0.0000e+000	
122.97	303.66	3.22E-03	1.00E-02	0	0.00000000e+000   0.0000e+000	
125.376	303.6	3.25E-03	1.00E-02	0	0.00000000e+000   0.0000e+000	
127.775	303.55	3.33E-03	1.00E-02	0	0.00000000e+000   0.0000e+000	
130.177	303.49	3.34E-03	1.00E-02	0	0.00000000e+000   0.0000e+000	
132.572	303.44	3.43E-03	1.00E-02	0	0.00000000e+000   0.0000e+000	
134.974	303.38	3.44E-03	1.00E-02	0	0.00000000e+000   0.0000e+000	
137.373	303.32	3.41E-03	1.00E-02	0	0.00000000e+000   0.0000e+000	
139.773	303.26	3.29E-03	1.00E-02	0	0.00000000e+000   0.0000e+000	
142.172	303.19	3.35E-03	1.00E-02	0	0.00000000e+000   0.0000e+000	
144.573	303.13	3.41E-03	1.00E-02	0	0.00000000e+000   0.0000e+000	
146.972	303.06	3.47E-03	1.00E-02	0	0.00000000e+000   0.0000e+000	
149.377	303	3.46E-03	1.00E-02	0	0.00000000e+000   0.0000e+000	
151.774	302.93	3.45E-03	1.00E-02	0	0.00000000e+000   0.0000e+000	
154.174	302.86	3.40E-03	1.00E-02	0	0.00000000e+000   0.0000e+000	
156.575	302.79	3.43E-03	1.00E-02	0	0.00000000e+000   0.0000e+000	
158.975	302.72	3.56E-03	1.00E-02	0	0.00000000e+000   0.0000e+000	
161.379	302.65	3.44E-03	1.00E-02	0	0.00000000e+000   0.0000e+000	
163.776	302.58	3.48E-03	1.00E-02	0	0.00000000e+000   0.0000e+000	
166.178	302.5	3.49E-03	1.00E-02	0	0.00000000e+000   0.0000e+000	
168.578	302.43	3.50E-03	1.00E-02	0	0.00000000e+000   0.0000e+000	
170.979	302.35	3.55E-03	1.00E-02	0	0.00000000e+000   0.0000e+000	
173.384	302.28	3.53E-03	1.00E-02	0	0.00000000e+000   0.0000e+000	
175.783	302.2	3.46E-03	1.00E-02	0	0.00000000e+000   0.0000e+000	
178.185	302.12	3.46E-03	1.00E-02	0	0.00000000e+000   0.0000e+000	
180.581	302.05	3.53E-03	1.00E-02	0	0.00000000e+000   0.0000e+000	
182.982	301.97	3.57E-03	1.00E-02	0	0.00000000e+000   0.0000e+000	
185.388	301.89	3.49E-03	1.00E-02	0	0.00000000e+000   0.0000e+000	
187.78	301.8	3.56E-03	1.00E-02	0	0.00000000e+000   0.0000e+000	
190.18	301.72	3.56E-03	1.00E-02	0	0.00000000e+000   0.0000e+000	
192.581	301.64	3.52E-03	1.00E-02	0	0.00000000e+000   0.0000e+000	
194.982	301.56	3.50E-03	1.00E-02	0	0.00000000e+000   0.0000e+000	
197.386	301.47	3.53E-03	1.00E-02	0	0.00000000e+000   0.0000e+000	
199.783	301.39	3.53E-03	1.00E-02	0	0.00000000e+000   0.0000e+000	
202.183	301.31	3.49E-03	1.00E-02	0	0.00000000e+000   0.0000e+000	
204.583	301.22	3.50E-03	1.00E-02	0	0.00000000e+000   0.0000e+000	
206.984	301.14	3.58E-03	1.00E-02	0	0.00000000e+000   0.0000e+000	
209.388	301.05	3.49E-03	1.00E-02	0	0.00000000e+000   0.0000e+000	
211.788	300.96	3.55E-03	1.00E-02	0	0.00000000e+000   0.0000e+000	
214.186	300.88	3.56E-03	1.00E-02	0	0.00000000e+000   0.0000e+000	
216.586	300.79	3.51E-03	1.00E-02	0	0.00000000e+000   0.0000e+000	
218.988	300.7	3.47E-03	1.00E-02	0	0.00000000e+000   0.0000e+000	
221.394	300.61	3.49E-03	1.00E-02	0	0.00000000e+000   0.0000e+000	
223.793	300.52	3.52E-03	1.00E-02	0	0.00000000e+000   0.0000e+000	
226.189	300.44	3.51E-03	1.00E-02	0	0.00000000e+000   0.0000e+000	
228.591	300.35	3.55E-03	1.00E-02	0	0.00000000e+000   0.0000e+000	
230.988	300.25	3.49E-03	1.00E-02	0	0.00000000e+000   0.0000e+000	
233.392	300.16	3.46E-03	1.00E-02	0	0.00000000e+000   0.0000e+000	
235.789	300.07	3.48E-03	1.00E-02	0	0.00000000e+000   0.0000e+000	
238.189	299.98	3.48E-03	1.00E-02	0	0.00000000e+000   0.0000e+000	
240.59	299.89	3.52E-03	1.00E-02	0	0.00000000e+000   0.0000e+000	
242.991	299.8	3.57E-03	1.00E-02	0	0.00000000e+000   0.0000e+000	
245.395	299.7	3.59E-03	1.00E-02	0	0.00000000e+000   0.0000e+000	
247.792	299.61	3.53E-03	1.00E-02	0	0.00000000e+000   0.0000e+000	
250.192	299.52	3.57E-03	1.00E-02	0	0.00000000e+000   0.0000e+000	
252.593	299.42	3.52E-03	1.00E-02	0	0.00000000e+000   0.0000e+000	
254.993	299.33	3.55E-03	1.00E-02	0	0.00000000e+000   0.0000e+000	
257.396	299.24	3.56E-03	1.00E-02	0	0.00000000e+000   0.0000e+000	
259.794	299.14	3.55E-03	1.00E-02	0	0.00000000e+000   0.0000e+000	
262.195	299.05	3.53E-03	1.00E-02	0	0.00000000e+000   0.0000e+000	
264.597	298.95	3.53E-03	1.00E-02	0	0.00000000e+000   0.0000e+000	
266.996	298.86	3.50E-03	1.00E-02	0	0.00000000e+000   0.0000e+000	
269.402	298.76	3.56E-03	1.00E-02	0	0.00000000e+000   0.0000e+000	
271.801	298.67	3.52E-03	1.00E-02	0	0.00000000e+000   0.0000e+000	
274.204	298.57	3.52E-03	1.00E-02	0	0.00000000e+000   0.0000e+000	
276.599	298.47	3.49E-03	1.00E-02	0	0.00000000e+000   0.0000e+000	
279.002	298.38	3.54E-03	1.00E-02	0	0.00000000e+000   0.0000e+000	
281.401	298.28	3.51E-03	1.00E-02	0	0.00000000e+000   0.0000e+000	
283.798	298.19	3.49E-03	1.00E-02	0	0.00000000e+000   0.0000e+000	
286.197	298.09	3.54E-03	1.00E-02	0	0.00000000e+000   0.0000e+000	
288.599	297.99	3.57E-03	1.00E-02	0	0.00000000e+000   0.0000e+000	
290.999	297.89	3.51E-03	1.00E-02	0	0.00000000e+000   0.0000e+000	
293.403	297.79	3.54E-03	1.00E-02	0	0.00000000e+000   0.0000e+000	
295.801	297.7	3.55E-03	1.00E-02	0	0.00000000e+000   0.0000e+000	
298.201	297.6	3.51E-03	1.00E-02	0	0.00000000e+000   0.0000e+000	
300.601	297.5	3.53E-03	1.00E-02	0	0.00000000e+000   0.0000e+000	
303.002	297.4	3.54E-03	1.00E-02	0	0.00000000e+000   0.0000e+000	
305.406	297.3	3.54E-03	1.00E-02	0	0.00000000e+000   0.0000e+000	
307.802	297.2	3.55E-03	1.00E-02	0	0.00000000e+000   0.0000e+000	
310.204	297.1	3.54E-03	1.00E-02	0	0.00000000e+000   0.0000e+000	
312.605	297	3.57E-03	1.00E-02	0	0.00000000e+000   0.0000e+000	
315.007	296.9	3.54E-03	1.00E-02	0	0.00000000e+000   0.0000e+000	
317.413	296.8	3.51E-03	1.00E-02	0	0.00000000e+000   0.0000e+000	
319.812	296.7	3.56E-03	1.00E-02	0	0.00000000e+000   0.0000e+000	
322.206	296.6	3.54E-03	1.00E-02	0	0.00000000e+000   0.0000e+000	
324.609	296.5	3.55E-03	1.00E-02	0	0.00000000e+000   0.0000e+000	
327.011	296.4	3.55E-03	1.00E-02	0	0.00000000e+000   0.0000e+000	
329.41	296.3	3.56E-03	1.00E-02	0	0.00000000e+000   0.0000e+000	
331.808	296.2	3.55E-03	1.00E-02	0	0.00000000e+000   0.0000e+000	
334.208	296.1	3.52E-03	1.00E-02	0	0.00000000e+000   0.0000e+000	
336.609	296	3.57E-03	1.00E-02	0	0.00000000e+000   0.0000e+000	
339.009	295.9	3.55E-03	1.00E-02	0	0.00000000e+000   0.0000e+000	
341.413	295.8	3.57E-03	1.00E-02	0	0.00000000e+000   0.0000e+000	
343.809	295.69	3.55E-03	1.00E-02	0	0.00000000e+000   0.0000e+000	
346.209	295.59	3.54E-03	1.00E-02	0	0.00000000e+000   0.0000e+000	
348.611	295.49	3.49E-03	1.00E-02	0	0.00000000e+000   0.0000e+000	
351.012	295.39	3.62E-03	1.00E-02	0	0.00000000e+000   0.0000e+000	
353.416	295.29	3.55E-03	1.00E-02	0	0.00000000e+000   0.0000e+000	
355.811	295.19	3.57E-03	1.00E-02	0	0.00000000e+000   0.0000e+000	
358.214	295.08	3.48E-03	1.00E-02	0	0.00000000e+000   0.0000e+000	
360.614	294.98	3.59E-03	1.00E-02	0	0.00000000e+000   0.0000e+000	
363.016	294.87	3.54E-03	1.00E-02	0	0.00000000e+000   0.0000e+000	
365.423	294.77	3.58E-03	1.00E-02	0	0.00000000e+000   0.0000e+000	
367.822	294.67	3.54E-03	1.00E-02	0	0.00000000e+000   0.0000e+000	
370.216	294.56	3.47E-03	1.00E-02	0	0.00000000e+000   0.0000e+000	
372.618	294.46	3.51E-03	1.00E-02	0	0.00000000e+000   0.0000e+000	
375.017	294.35	3.55E-03	1.00E-02	0	0.00000000e+000   0.0000e+000	
377.419	294.25	3.51E-03	1.00E-02	0	0.00000000e+000   0.0000e+000	
379.817	294.14	3.54E-03	1.00E-02	0	0.00000000e+000   0.0000e+000	
382.217	294.03	3.52E-03	1.00E-02	0	0.00000000e+000   0.0000e+000	
384.618	293.93	3.56E-03	1.00E-02	0	0.00000000e+000   0.0000e+000	
387.018	293.82	3.49E-03	1.00E-02	0	0.00000000e+000   0.0000e+000	
389.421	293.72	3.53E-03	1.00E-02	0	0.00000000e+000   0.0000e+000	
391.818	293.61	3.53E-03	1.00E-02	0	0.00000000e+000   0.0000e+000	
394.219	293.5	3.55E-03	1.00E-02	0	0.00000000e+000   0.0000e+000	
396.619	293.4	3.54E-03	1.00E-02	0	0.00000000e+000   0.0000e+000	
399.019	293.29	3.49E-03	1.00E-02	0	0.00000000e+000   0.0000e+000	
401.425	293.18	3.48E-03	1.00E-02	0	0.00000000e+000   0.0000e+000	
403.821	293.08	3.51E-03	1.00E-02	0	0.00000000e+000   0.0000e+000	
406.223	292.97	3.48E-03	1.00E-02	0	0.00000000e+000   0.0000e+000	
408.623	292.87	3.47E-03	1.00E-02	0	0.00000000e+000   0.0000e+000	
411.026	292.76	3.47E-03	1.00E-02	0	0.00000000e+000   0.0000e+000	
413.431	292.65	3.53E-03	1.00E-02	0	0.00000000e+000   0.0000e+000	
415.831	292.55	3.49E-03	1.00E-02	0	0.00000000e+000   0.0000e+000	
418.226	292.44	3.49E-03	1.00E-02	0	0.00000000e+000   0.0000e+000	
420.628	292.33	2.97E-03	1.00E-02	0	0.00000000e+000   0.0000e+000	
423.025	292.22	4.82E-03	1.00E-02	0	0.00000000e+000   0.0000e+000	
425.428	292.12	3.47E-03	1.00E-02	0	0.00000000e+000   0.0000e+000	
427.825	292.01	3.49E-03	1.00E-02	0	0.00000000e+000   0.0000e+000	
430.226	291.9	3.47E-03	1.00E-02	0	0.00000000e+000   0.0000e+000	
432.626	291.8	3.42E-03	1.00E-02	0	0.00000000e+000   0.0000e+000	
435.027	291.69	3.49E-03	1.00E-02	0	0.00000000e+000   0.0000e+000	
437.431	291.58	3.44E-03	1.00E-02	0	0.00000000e+000   0.0000e+000	
439.828	291.47	3.45E-03	1.00E-02	0	0.00000000e+000   0.0000e+000	
442.228	291.36	3.53E-03	1.00E-02	0	0.00000000e+000   0.0000e+000	
444.628	291.26	3.46E-03	1.00E-02	0	0.00000000e+000   0.0000e+000	
447.03	291.15	3.47E-03	1.00E-02	0	0.00000000e+000   0.0000e+000	
449.432	291.04	3.47E-03	1.00E-02	0	0.00000000e+000   0.0000e+000	
451.831	290.93	3.49E-03	1.00E-02	0	0.00000000e+000   0.0000e+000	
454.231	290.82	3.47E-03	1.00E-02	0	0.00000000e+000   0.0000e+000	
456.634	290.71	3.51E-03	1.00E-02	0	0.00000000e+000   0.0000e+000	
459.036	290.61	3.45E-03	1.00E-02	0	0.00000000e+000   0.0000e+000	
461.442	290.5	3.51E-03	1.00E-02	0	0.00000000e+000   0.0000e+000	
463.833	290.39	3.46E-03	1.00E-02	0	0.00000000e+000   0.0000e+000	
466.236	290.28	3.50E-03	1.00E-02	0	0.00000000e+000   0.0000e+000	
468.638	290.17	3.51E-03	1.00E-02	0	0.00000000e+000   0.0000e+000	
471.035	290.06	3.42E-03	1.00E-02	0	0.00000000e+000   0.0000e+000	
473.437	289.95	3.45E-03	1.00E-02	0	0.00000000e+000   0.0000e+000	
475.835	289.84	3.48E-03	1.00E-02	0	0.00000000e+000   0.0000e+000	
478.235	289.73	3.47E-03	1.00E-02	0	0.00000000e+000   0.0000e+000	
480.635	289.62	3.47E-03	1.00E-02	0	0.00000000e+000   0.0000e+000	
483.036	289.51	3.46E-03	1.00E-02	0	0.00000000e+000   0.0000e+000	
485.439	289.4	3.42E-03	1.00E-02	0	0.00000000e+000   0.0000e+000	
487.837	289.29	3.41E-03	1.00E-02	0	0.00000000e+000   0.0000e+000	
490.237	289.18	3.45E-03	1.00E-02	0	0.00000000e+000   0.0000e+000	
492.638	289.07	3.48E-03	1.00E-02	0	0.00000000e+000   0.0000e+000	
495.04	288.96	3.44E-03	1.00E-02	0	0.00000000e+000   0.0000e+000	
497.443	288.85	3.45E-03	1.00E-02	0	0.00000000e+000   0.0000e+000	
499.841	288.74	3.43E-03	1.00E-02	0	0.00000000e+000   0.0000e+000	
502.241	288.63	3.42E-03	1.00E-02	0	0.00000000e+000   0.0000e+000	
504.643	288.52	3.42E-03	1.00E-02	0	0.00000000e+000   0.0000e+000	
507.047	288.41	3.41E-03	1.00E-02	0	0.00000000e+000   0.0000e+000	
509.446	288.3	3.40E-03	1.00E-02	0	0.00000000e+000   0.0000e+000	
511.843	288.19	3.38E-03	1.00E-02	0	0.00000000e+000   0.0000e+000	
514.246	288.07	3.43E-03	1.00E-02	0	0.00000000e+000   0.0000e+000	
516.642	287.96	3.48E-03	1.00E-02	0	0.00000000e+000   0.0000e+000	
519.042	287.85	3.41E-03	1.00E-02	0	0.00000000e+000   0.0000e+000	
521.446	287.74	3.38E-03	1.00E-02	0	0.00000000e+000   0.0000e+000	
523.844	287.63	3.42E-03	1.00E-02	0	0.00000000e+000   0.0000e+000	
526.244	287.52	3.46E-03	1.00E-02	0	0.00000000e+000   0.0000e+000	
528.645	287.41	3.42E-03	1.00E-02	0	0.00000000e+000   0.0000e+000	
531.045	287.3	3.37E-03	1.00E-02	0	0.00000000e+000   0.0000e+000	
533.448	287.18	3.46E-03	1.00E-02	0	0.00000000e+000   0.0000e+000	
535.846	287.07	3.40E-03	1.00E-02	0	0.00000000e+000   0.0000e+000	
538.245	286.96	3.37E-03	1.00E-02	0	0.00000000e+000   0.0000e+000	
540.648	286.85	3.37E-03	1.00E-02	0	0.00000000e+000   0.0000e+000	
543.05	286.74	3.43E-03	1.00E-02	0	0.00000000e+000   0.0000e+000	
545.452	286.63	3.39E-03	1.00E-02	0	0.00000000e+000   0.0000e+000	
547.849	286.51	3.38E-03	1.00E-02	0	0.00000000e+000   0.0000e+000	
550.251	286.4	3.35E-03	1.00E-02	0	0.00000000e+000   0.0000e+000	
552.654	286.29	3.40E-03	1.00E-02	0	0.00000000e+000   0.0000e+000	
555.056	286.18	3.40E-03	1.00E-02	0	0.00000000e+000   0.0000e+000	
557.454	286.07	3.37E-03	1.00E-02	0	0.00000000e+000   0.0000e+000	
559.854	285.96	3.33E-03	1.00E-02	0	0.00000000e+000   0.0000e+000	
562.258	285.85	3.40E-03	1.00E-02	0	0.00000000e+000   0.0000e+000	
564.652	285.73	3.34E-03	1.00E-02	0	0.00000000e+000   0.0000e+000	
567.051	285.62	3.38E-03	1.00E-02	0	0.00000000e+000   0.0000e+000	
569.456	285.51	3.36E-03	1.00E-02	0	0.00000000e+000   0.0000e+000	
571.852	285.4	3.36E-03	1.00E-02	0	0.00000000e+000   0.0000e+000	
574.253	285.29	3.33E-03	1.00E-02	0	0.00000000e+000   0.0000e+000	
576.654	285.17	3.38E-03	1.00E-02	0	0.00000000e+000   0.0000e+000	
579.054	285.06	3.31E-03	1.00E-02	0	0.00000000e+000   0.0000e+000	
581.458	284.95	3.30E-03	1.00E-02	0	0.00000000e+000   0.0000e+000	
583.855	284.84	3.31E-03	1.00E-02	0	0.00000000e+000   0.0000e+000	
586.255	284.72	3.33E-03	1.00E-02	0	0.00000000e+000   0.0000e+000	
588.656	284.61	3.36E-03	1.00E-02	0	0.00000000e+000   0.0000e+000	
591.056	284.5	3.33E-03	1.00E-02	0	0.00000000e+000   0.0000e+000	
593.461	284.39	3.37E-03	1.00E-02	0	0.00000000e+000   0.0000e+000	
595.86	284.28	3.35E-03	1.00E-02	0	0.00000000e+000   0.0000e+000	
598.258	284.16	3.31E-03	1.00E-02	0	0.00000000e+000   0.0000e+000	
600.661	284.05	3.32E-03	1.00E-02	0	0.00000000e+000   0.0000e+000	
603.06	283.94	3.34E-03	1.00E-02	0	0.00000000e+000   0.0000e+000	
605.466	283.82	3.26E-03	1.00E-02	0	0.00000000e+000   0.0000e+000	
607.865	283.71	3.26E-03	1.00E-02	0	0.00000000e+000   0.0000e+000	
610.261	283.6	3.26E-03	1.00E-02	0	0.00000000e+000   0.0000e+000	
612.663	283.49	3.25E-03	1.00E-02	0	0.00000000e+000   0.0000e+000	
615.066	283.38	3.30E-03	1.00E-02	0	0.00000000e+000   0.0000e+000	
617.465	283.26	3.30E-03	1.00E-02	0	0.00000000e+000   0.0000e+000	
619.862	283.15	3.26E-03	1.00E-02	0	0.00000000e+000   0.0000e+000	
622.262	283.04	3.28E-03	1.00E-02	0	0.00000000e+000   0.0000e+000	
624.662	282.92	3.22E-03	1.00E-02	0	0.00000000e+000   0.0000e+000	
627.062	282.81	3.27E-03	1.00E-02	0	0.00000000e+000   0.0000e+000	
629.467	282.7	3.21E-03	1.00E-02	0	0.00000000e+000   0.0000e+000	
631.864	282.58	3.27E-03	1.00E-02	0	0.00000000e+000   0.0000e+000	
634.265	282.47	3.23E-03	1.00E-02	0	0.00000000e+000   0.0000e+000	
636.665	282.36	3.25E-03	1.00E-02	0	0.00000000e+000   0.0000e+000	
639.065	282.24	3.24E-03	1.00E-02	0	0.00000000e+000   0.0000e+000	
641.47	282.13	3.26E-03	1.00E-02	0	0.00000000e+000   0.0000e+000	
643.866	282.02	3.25E-03	1.00E-02	0	0.00000000e+000   0.0000e+000	
646.269	281.91	3.25E-03	1.00E-02	0	0.00000000e+000   0.0000e+000	
648.669	281.79	3.18E-03	1.00E-02	0	0.00000000e+000   0.0000e+000	
651.071	281.68	3.14E-03	1.00E-02	0	0.00000000e+000   0.0000e+000	
653.477	281.56	3.20E-03	1.00E-02	0	0.00000000e+000   0.0000e+000	
655.869	281.45	3.20E-03	1.00E-02	0	0.00000000e+000   0.0000e+000	
658.27	281.34	3.19E-03	1.00E-02	0	0.00000000e+000   0.0000e+000	
660.672	281.23	3.22E-03	1.00E-02	0	0.00000000e+000   0.0000e+000	
663.07	281.11	3.20E-03	1.00E-02	0	0.00000000e+000   0.0000e+000	
665.474	281	3.17E-03	1.00E-02	0	0.00000000e+000   0.0000e+000	
667.871	280.89	3.21E-03	1.00E-02	0	0.00000000e+000   0.0000e+000	
670.271	280.77	3.18E-03	1.00E-02	0	0.00000000e+000   0.0000e+000	
672.671	280.65	3.17E-03	1.00E-02	0	0.00000000e+000   0.0000e+000	
675.072	280.54	3.18E-03	1.00E-02	0	0.00000000e+000   0.0000e+000	
677.476	280.43	3.14E-03	1.00E-02	0	0.00000000e+000   0.0000e+000	
679.873	280.31	3.17E-03	1.00E-02	0	0.00000000e+000   0.0000e+000	
682.274	280.2	3.16E-03	1.00E-02	0	0.00000000e+000   0.0000e+000	
684.674	280.08	3.17E-03	1.00E-02	0	0.00000000e+000   0.0000e+000	
687.074	279.97	3.13E-03	1.00E-02	0	0.00000000e+000   0.0000e+000	
689.478	279.85	3.16E-03	1.00E-02	0	0.00000000e+000   0.0000e+000	
691.875	279.74	3.17E-03	1.00E-02	0	0.00000000e+000   0.0000e+000	
694.277	279.62	3.17E-03	1.00E-02	0	0.00000000e+000   0.0000e+000	
696.675	279.51	3.19E-03	1.00E-02	0	0.00000000e+000   0.0000e+000	
699.079	279.4	3.17E-03	1.00E-02	0	0.00000000e+000   0.0000e+000	
701.482	279.28	3.16E-03	1.00E-02	0	0.00000000e+000   0.0000e+000	
703.881	279.17	3.11E-03	1.00E-02	0	0.00000000e+000   0.0000e+000	
706.284	279.05	3.06E-03	1.00E-02	0	0.00000000e+000   0.0000e+000	
708.678	278.94	3.13E-03	1.00E-02	0	0.00000000e+000   0.0000e+000	
711.081	278.82	3.13E-03	1.00E-02	0	0.00000000e+000   0.0000e+000	
713.487	278.71	3.09E-03	1.00E-02	0	0.00000000e+000   0.0000e+000	
715.88	278.59	3.05E-03	1.00E-02	0	0.00000000e+000   0.0000e+000	
718.281	278.48	3.08E-03	1.00E-02	0	0.00000000e+000   0.0000e+000	
720.68	278.36	3.07E-03	1.00E-02	0	0.00000000e+000   0.0000e+000	
723.081	278.25	3.09E-03	1.00E-02	0	0.00000000e+000   0.0000e+000	
725.485	278.13	3.10E-03	1.00E-02	0	0.00000000e+000   0.0000e+000	
727.882	278.02	3.09E-03	1.00E-02	0	0.00000000e+000   0.0000e+000	
730.281	277.9	3.09E-03	1.00E-02	0	0.00000000e+000   0.0000e+000	
732.683	277.79	3.09E-03	1.00E-02	0	0.00000000e+000   0.0000e+000	
735.084	277.67	3.08E-03	1.00E-02	0	0.00000000e+000   0.0000e+000	
737.488	277.56	3.04E-03	1.00E-02	0	0.00000000e+000   0.0000e+000	
739.884	277.44	3.07E-03	1.00E-02	0	0.00000000e+000   0.0000e+000	
742.286	277.33	3.07E-03	1.00E-02	0	0.00000000e+000   0.0000e+000	
744.685	277.21	3.04E-03	1.00E-02	0	0.00000000e+000   0.0000e+000	
747.087	277.1	3.00E-03	1.00E-02	0	0.00000000e+000   0.0000e+000	
749.49	276.98	3.02E-03	1.00E-02	0	0.00000000e+000   0.0000e+000	
751.89	276.87	3.04E-03	1.00E-02	0	0.00000000e+000   0.0000e+000	
754.292	276.75	2.99E-03	1.00E-02	0	0.00000000e+000   0.0000e+000	
756.695	276.64	3.03E-03	1.00E-02	0	0.00000000e+000   0.0000e+000	
759.09	276.53	3.00E-03	1.00E-02	0	0.00000000e+000   0.0000e+000	
761.495	276.41	2.99E-03	1.00E-02	0	0.00000000e+000   0.0000e+000	
763.894	276.29	3.05E-03	1.00E-02	0	0.00000000e+000   0.0000e+000	
766.289	276.18	3.03E-03	1.00E-02	0	0.00000000e+000   0.0000e+000	
768.69	276.06	2.95E-03	1.00E-02	0	0.00000000e+000   0.0000e+000	
771.09	275.95	3.02E-03	1.00E-02	0	0.00000000e+000   0.0000e+000	
773.494	275.83	2.94E-03	1.00E-02	0	0.00000000e+000   0.0000e+000	
775.891	275.72	2.91E-03	1.00E-02	0	0.00000000e+000   0.0000e+000	
778.291	275.6	2.94E-03	1.00E-02	0	0.00000000e+000   0.0000e+000	
780.691	275.49	2.96E-03	1.00E-02	0	0.00000000e+000   0.0000e+000	
783.092	275.37	2.94E-03	1.00E-02	0	0.00000000e+000   0.0000e+000	
785.496	275.26	2.93E-03	1.00E-02	0	0.00000000e+000   0.0000e+000	
787.894	275.14	2.91E-03	1.00E-02	0	0.00000000e+000   0.0000e+000	
790.296	275.03	2.93E-03	1.00E-02	0	0.00000000e+000   0.0000e+000	
792.695	274.91	2.87E-03	1.00E-02	0	0.00000000e+000   0.0000e+000	
795.097	274.79	2.86E-03	1.00E-02	0	0.00000000e+000   0.0000e+000	
797.5	274.67	2.88E-03	1.00E-02	0	0.00000000e+000   0.0000e+000	
799.899	274.56	2.87E-03	1.00E-02	0	0.00000000e+000   0.0000e+000	
802.303	274.44	2.87E-03	1.00E-02	0	0.00000000e+000   0.0000e+000	
804.698	274.33	2.89E-03	1.00E-02	0	0.00000000e+000   0.0000e+000	
807.1	274.21	2.82E-03	1.00E-02	0	0.00000000e+000   0.0000e+000	
809.505	274.1	2.86E-03	1.00E-02	0	0.00000000e+000   0.0000e+000	
811.898	273.98	2.82E-03	1.00E-02	0	0.00000000e+000   0.0000e+000	
814.298	273.86	2.76E-03	1.00E-02	0	0.00000000e+000   0.0000e+000	
816.698	273.75	2.83E-03	1.00E-02	0	0.00000000e+000   0.0000e+000	
819.099	273.63	2.86E-03	1.00E-02	0	0.00000000e+000   0.0000e+000	
821.504	273.52	2.78E-03	1.00E-02	0	0.00000000e+000   0.0000e+000	
823.899	273.4	2.80E-03	1.00E-02	0	0.00000000e+000   0.0000e+000	
826.301	273.28	2.76E-03	1.00E-02	0	0.00000000e+000   0.0000e+000	
828.702	273.16	2.73E-03	1.00E-02	0	0.00000000e+000   0.0000e+000	
831.101	273.05	2.72E-03	1.00E-02	0	0.00000000e+000   0.0000e+000	
833.505	272.93	2.72E-03	1.00E-02	0	0.00000000e+000   0.0000e+000	
835.901	272.82	2.65E-03	1.00E-02	0	0.00000000e+000   0.0000e+000	
838.304	272.7	2.66E-03	1.00E-02	0	0.00000000e+000   0.0000e+000	
840.703	272.58	2.55E-03	1.00E-02	0	0.00000000e+000   0.0000e+000	
843.106	272.46	2.57E-03	1.00E-02	0	0.00000000e+000   0.0000e+000	
845.509	272.35	2.50E-03	1.00E-02	0	0.00000000e+000   0.0000e+000	
847.908	272.23	2.49E-03	1.00E-02	0	0.00000000e+000   0.0000e+000	
850.31	272.11	2.53E-03	1.00E-02	0	0.00000000e+000   0.0000e+000	
852.706	272	2.52E-03	1.00E-02	0	0.00000000e+000   0.0000e+000	
855.108	271.88	2.49E-03	1.00E-02	0	0.00000000e+000   0.0000e+000	
857.514	271.77	2.50E-03	1.00E-02	0	0.00000000e+000   0.0000e+000	
859.907	271.65	2.54E-03	1.00E-02	0	0.00000000e+000   0.0000e+000	
862.307	271.53	2.45E-03	1.00E-02	0	0.00000000e+000   0.0000e+000	
864.706	271.42	2.49E-03	1.00E-02	0	0.00000000e+000   0.0000e+000	
867.107	271.3	2.50E-03	1.00E-02	0	0.00000000e+000   0.0000e+000	
869.511	271.18	2.48E-03	1.00E-02	0	0.00000000e+000   0.0000e+000	
871.908	271.07	2.46E-03	1.00E-02	0	0.00000000e+000   0.0000e+000	
874.31	270.95	2.48E-03	1.00E-02	0	0.00000000e+000   0.0000e+000	
876.71	270.83	2.48E-03	1.00E-02	0	0.00000000e+000   0.0000e+000	
879.111	270.72	2.48E-03	1.00E-02	0	0.00000000e+000   0.0000e+000	
881.514	270.6	2.48E-03	1.00E-02	0	0.00000000e+000   0.0000e+000	
883.911	270.49	2.45E-03	1.00E-02	0	0.00000000e+000   0.0000e+000	
886.311	270.37	2.46E-03	1.00E-02	0	0.00000000e+000   0.0000e+000	
888.713	270.25	2.49E-03	1.00E-02	0	0.00000000e+000   0.0000e+000	
891.113	270.14	2.47E-03	1.00E-02	0	0.00000000e+000   0.0000e+000	
893.519	270.02	2.44E-03	1.00E-02	0	0.00000000e+000   0.0000e+000	
895.915	269.9	2.46E-03	1.00E-02	0	0.00000000e+000   0.0000e+000	
898.317	269.78	2.44E-03	1.00E-02	0	0.00000000e+000   0.0000e+000	
900.72	269.67	2.43E-03	1.00E-02	0	0.00000000e+000   0.0000e+000	
903.116	269.55	2.43E-03	1.00E-02	0	0.00000000e+000   0.0000e+000	
905.52	269.44	2.42E-03	1.00E-02	0	0.00000000e+000   0.0000e+000	
907.918	269.32	2.44E-03	1.00E-02	0	0.00000000e+000   0.0000e+000	
910.316	269.2	2.39E-03	1.00E-02	0	0.00000000e+000   0.0000e+000	
912.717	269.09	2.39E-03	1.00E-02	0	0.00000000e+000   0.0000e+000	
915.117	268.97	2.42E-03	1.00E-02	0	0.00000000e+000   0.0000e+000	
917.52	268.85	2.42E-03	1.00E-02	0	0.00000000e+000   0.0000e+000	
919.917	268.74	2.39E-03	1.00E-02	0	0.00000000e+000   0.0000e+000	
922.318	268.62	2.37E-03	1.00E-02	0	0.00000000e+000   0.0000e+000	
924.719	268.5	2.43E-03	1.00E-02	0	0.00000000e+000   0.0000e+000	
927.12	268.39	2.39E-03	1.00E-02	0	0.00000000e+000   0.0000e+000	
929.523	268.27	2.43E-03	1.00E-02	0	0.00000000e+000   0.0000e+000	
931.921	268.15	2.40E-03	1.00E-02	0	0.00000000e+000   0.0000e+000	
934.321	268.04	2.38E-03	1.00E-02	0	0.00000000e+000   0.0000e+000	
936.721	267.92	2.40E-03	1.00E-02	0	0.00000000e+000   0.0000e+000	
939.122	267.8	2.37E-03	1.00E-02	0	0.00000000e+000   0.0000e+000	
941.526	267.69	2.41E-03	1.00E-02	0	0.00000000e+000   0.0000e+000	
943.926	267.57	2.32E-03	1.00E-02	0	0.00000000e+000   0.0000e+000	
946.328	267.45	2.38E-03	1.00E-02	0	0.00000000e+000   0.0000e+000	
948.724	267.34	2.38E-03	1.00E-02	0	0.00000000e+000   0.0000e+000	
951.125	267.22	2.37E-03	1.00E-02	0	0.00000000e+000   0.0000e+000	
953.531	267.1	2.37E-03	1.00E-02	0	0.00000000e+000   0.0000e+000	
955.925	266.99	2.38E-03	1.00E-02	0	0.00000000e+000   0.0000e+000	
958.324	266.87	2.36E-03	1.00E-02	0	0.00000000e+000   0.0000e+000	
960.726	266.75	2.39E-03	1.00E-02	0	0.00000000e+000   0.0000e+000	
963.126	266.64	2.40E-03	1.00E-02	0	0.00000000e+000   0.0000e+000	
965.53	266.52	2.41E-03	1.00E-02	0	0.00000000e+000   0.0000e+000	
967.927	266.4	2.38E-03	1.00E-02	0	0.00000000e+000   0.0000e+000	
970.327	266.28	2.33E-03	1.00E-02	0	0.00000000e+000   0.0000e+000	
972.728	266.17	2.42E-03	1.00E-02	0	0.00000000e+000   0.0000e+000	
975.128	266.05	2.39E-03	1.00E-02	0	0.00000000e+000   0.0000e+000	
977.533	265.93	2.39E-03	1.00E-02	0	0.00000000e+000   0.0000e+000	
979.93	265.82	2.41E-03	1.00E-02	0	0.00000000e+000   0.0000e+000	
982.332	265.7	2.36E-03	1.00E-02	0	0.00000000e+000   0.0000e+000	
984.731	265.58	2.35E-03	1.00E-02	0	0.00000000e+000   0.0000e+000	
987.133	265.46	2.37E-03	1.00E-02	0	0.00000000e+000   0.0000e+000	
989.536	265.35	2.42E-03	1.00E-02	0	0.00000000e+000   0.0000e+000	
991.935	265.23	2.39E-03	1.00E-02	0	0.00000000e+000   0.0000e+000	
994.338	265.12	2.42E-03	1.00E-02	0	0.00000000e+000   0.0000e+000	
996.734	265	2.44E-03	1.00E-02	0	0.00000000e+000   0.0000e+000	
999.136	264.88	2.37E-03	1.00E-02	0	0.00000000e+000   0.0000e+000	
1001.537	264.76	2.39E-03	1.00E-02	0	0.00000000e+000   0.0000e+000	
1003.933	264.65	2.40E-03	1.00E-02	0	0.00000000e+000   0.0000e+000	
1006.334	264.53	2.38E-03	1.00E-02	0	0.00000000e+000   0.0000e+000	
1008.733	264.41	2.37E-03	1.00E-02	0	0.00000000e+000   0.0000e+000	
1011.134	264.29	2.35E-03	1.00E-02	0	0.00000000e+000   0.0000e+000	
1013.539	264.18	2.36E-03	1.00E-02	0	0.00000000e+000   0.0000e+000	
1015.936	264.06	2.38E-03	1.00E-02	0	0.00000000e+000   0.0000e+000	
1018.336	263.94	2.42E-03	1.00E-02	0	0.00000000e+000   0.0000e+000	
1020.736	263.83	2.40E-03	1.00E-02	0	0.00000000e+000   0.0000e+000	
1023.137	263.71	2.42E-03	1.00E-02	0	0.00000000e+000   0.0000e+000	
1025.541	263.59	2.44E-03	1.00E-02	0	0.00000000e+000   0.0000e+000	
1027.939	263.47	2.40E-03	1.00E-02	0	0.00000000e+000   0.0000e+000	
1030.339	263.36	2.38E-03	1.00E-02	0	0.00000000e+000   0.0000e+000	
1032.739	263.24	2.39E-03	1.00E-02	0	0.00000000e+000   0.0000e+000	
1035.141	263.12	2.39E-03	1.00E-02	0	0.00000000e+000   0.0000e+000	
1037.547	263.01	2.37E-03	1.00E-02	0	0.00000000e+000   0.0000e+000	
1039.946	262.89	2.35E-03	1.00E-02	0	0.00000000e+000   0.0000e+000	
1042.341	262.77	2.38E-03	1.00E-02	0	0.00000000e+000   0.0000e+000	
1044.743	262.66	2.34E-03	1.00E-02	0	0.00000000e+000   0.0000e+000	
1047.147	262.54	2.39E-03	1.00E-02	0	0.00000000e+000   0.0000e+000	
1049.545	262.42	2.36E-03	1.00E-02	0	0.00000000e+000   0.0000e+000	
1051.942	262.3	2.38E-03	1.00E-02	0	0.00000000e+000   0.0000e+000	
1054.343	262.19	2.37E-03	1.00E-02	0	0.00000000e+000   0.0000e+000	
1056.743	262.07	2.38E-03	1.00E-02	0	0.00000000e+000   0.0000e+000	
1059.144	261.95	2.40E-03	1.00E-02	0	0.00000000e+000   0.0000e+000	
1061.547	261.83	2.39E-03	1.00E-02	0	0.00000000e+000   0.0000e+000	
1063.943	261.72	2.36E-03	1.00E-02	0	0.00000000e+000   0.0000e+000	
1066.345	261.6	2.37E-03	1.00E-02	0	0.00000000e+000   0.0000e+000	
1068.745	261.48	2.35E-03	1.00E-02	0	0.00000000e+000   0.0000e+000	
1071.146	261.36	2.36E-03	1.00E-02	0	0.00000000e+000   0.0000e+000	
1073.55	261.25	2.38E-03	1.00E-02	0	0.00000000e+000   0.0000e+000	
1075.947	261.13	2.34E-03	1.00E-02	0	0.00000000e+000   0.0000e+000	
1078.349	261.01	2.38E-03	1.00E-02	0	0.00000000e+000   0.0000e+000	
1080.748	260.9	2.34E-03	1.00E-02	0	0.00000000e+000   0.0000e+000	
1083.152	260.78	2.40E-03	1.00E-02	0	0.00000000e+000   0.0000e+000	
1085.555	260.66	2.38E-03	1.00E-02	0	0.00000000e+000   0.0000e+000	
1087.953	260.54	2.36E-03	1.00E-02	0	0.00000000e+000   0.0000e+000	
1090.356	260.43	2.34E-03	1.00E-02	0	0.00000000e+000   0.0000e+000	
1092.752	260.31	2.34E-03	1.00E-02	0	0.00000000e+000   0.0000e+000	
1095.153	260.19	2.35E-03	1.00E-02	0	0.00000000e+000   0.0000e+000	
1097.559	260.08	2.37E-03	1.00E-02	0	0.00000000e+000   0.0000e+000	
1099.952	259.96	2.37E-03	1.00E-02	0	0.00000000e+000   0.0000e+000	
1102.352	259.84	2.35E-03	1.00E-02	0	0.00000000e+000   0.0000e+000	
1104.753	259.72	2.41E-03	1.00E-02	0	0.00000000e+000   0.0000e+000	
1107.153	259.6	2.35E-03	1.00E-02	0	0.00000000e+000   0.0000e+000	
1109.556	259.48	2.38E-03	1.00E-02	0	0.00000000e+000   0.0000e+000	
1111.954	259.36	2.31E-03	1.00E-02	0	0.00000000e+000   0.0000e+000	
1114.353	259.25	2.33E-03	1.00E-02	0	0.00000000e+000   0.0000e+000	
1116.754	259.13	2.37E-03	1.00E-02	0	0.00000000e+000   0.0000e+000	
1119.155	259.01	2.33E-03	1.00E-02	0	0.00000000e+000   0.0000e+000	
1121.559	258.89	2.37E-03	1.00E-02	0	0.00000000e+000   0.0000e+000	
1123.956	258.77	2.33E-03	1.00E-02	0	0.00000000e+000   0.0000e+000	
1126.357	258.65	2.34E-03	1.00E-02	0	0.00000000e+000   0.0000e+000	
1128.756	258.53	2.35E-03	1.00E-02	0	0.00000000e+000   0.0000e+000	
1131.159	258.42	2.32E-03	1.00E-02	0	0.00000000e+000   0.0000e+000	
1133.562	258.3	2.36E-03	1.00E-02	0	0.00000000e+000   0.0000e+000	
1135.961	258.18	2.37E-03	1.00E-02	0	0.00000000e+000   0.0000e+000	
1138.36	258.06	2.35E-03	1.00E-02	0	0.00000000e+000   0.0000e+000	
1140.763	257.94	2.34E-03	1.00E-02	0	0.00000000e+000   0.0000e+000	
1143.165	257.82	2.35E-03	1.00E-02	0	0.00000000e+000   0.0000e+000	
1145.564	257.7	2.38E-03	1.00E-02	0	0.00000000e+000   0.0000e+000	
1147.962	257.59	2.30E-03	1.00E-02	0	0.00000000e+000   0.0000e+000	
1150.364	257.47	2.35E-03	1.00E-02	0	0.00000000e+000   0.0000e+000	
1152.762	257.35	2.35E-03	1.00E-02	0	0.00000000e+000   0.0000e+000	
1155.162	257.23	2.37E-03	1.00E-02	0	0.00000000e+000   0.0000e+000	
1157.565	257.11	2.35E-03	1.00E-02	0	0.00000000e+000   0.0000e+000	
1159.962	256.99	2.35E-03	1.00E-02	0	0.00000000e+000   0.0000e+000	
1162.363	256.87	2.39E-03	1.00E-02	0	0.00000000e+000   0.0000e+000	
1164.763	256.75	2.31E-03	1.00E-02	0	0.00000000e+000   0.0000e+000	
1167.164	256.63	2.33E-03	1.00E-02	0	0.00000000e+000   0.0000e+000	
1169.569	256.51	2.34E-03	1.00E-02	0	0.00000000e+000   0.0000e+000	
1171.965	256.4	2.34E-03	1.00E-02	0	0.00000000e+000   0.0000e+000	
1174.366	256.28	2.32E-03	1.00E-02	0	0.00000000e+000   0.0000e+000	
1176.767	256.16	2.32E-03	1.00E-02	0	0.00000000e+000   0.0000e+000	
1179.167	256.04	2.30E-03	1.00E-02	0	0.00000000e+000   0.0000e+000	
1181.571	255.92	2.34E-03	1.00E-02	0	0.00000000e+000   0.0000e+000	
1183.968	255.8	2.32E-03	1.00E-02	0	0.00000000e+000   0.0000e+000	
1186.37	255.68	2.31E-03	1.00E-02	0	0.00000000e+000   0.0000e+000	
1188.773	255.57	2.31E-03	1.00E-02	0	0.00000000e+000   0.0000e+000	
1191.176	255.45	2.31E-03	1.00E-02	0	0.00000000e+000   0.0000e+000	
1193.574	255.33	2.34E-03	1.00E-02	0	0.00000000e+000   0.0000e+000	
1195.973	255.21	2.32E-03	1.00E-02	0	0.00000000e+000   0.0000e+000	
1198.37	255.09	2.35E-03	1.00E-02	0	0.00000000e+000   0.0000e+000	
1200.77	254.97	2.35E-03	1.00E-02	0	0.00000000e+000   0.0000e+000	
1203.171	254.86	2.35E-03	1.00E-02	0	0.00000000e+000   0.0000e+000	
1205.575	254.74	2.35E-03	1.00E-02	0	0.00000000e+000   0.0000e+000	
1207.972	254.62	2.35E-03	1.00E-02	0	0.00000000e+000   0.0000e+000	
1210.372	254.5	2.37E-03	1.00E-02	0	0.00000000e+000   0.0000e+000	
1212.772	254.38	2.35E-03	1.00E-02	0	0.00000000e+000   0.0000e+000	
1215.173	254.26	2.34E-03	1.00E-02	0	0.00000000e+000   0.0000e+000	
1217.576	254.14	2.31E-03	1.00E-02	0	0.00000000e+000   0.0000e+000	
1219.974	254.02	2.30E-03	1.00E-02	0	0.00000000e+000   0.0000e+000	
1222.374	253.91	2.34E-03	1.00E-02	0	0.00000000e+000   0.0000e+000	
1224.775	253.79	2.36E-03	1.00E-02	0	0.00000000e+000   0.0000e+000	
1227.176	253.67	2.40E-03	1.00E-02	0	0.00000000e+000   0.0000e+000	
1229.58	253.55	2.31E-03	1.00E-02	0	0.00000000e+000   0.0000e+000	
1231.976	253.43	2.35E-03	1.00E-02	0	0.00000000e+000   0.0000e+000	
1234.376	253.31	2.36E-03	1.00E-02	0	0.00000000e+000   0.0000e+000	
1236.778	253.19	2.34E-03	1.00E-02	0	0.00000000e+000   0.0000e+000	
1239.181	253.08	2.35E-03	1.00E-02	0	0.00000000e+000   0.0000e+000	
1241.587	252.96	2.30E-03	1.00E-02	0	0.00000000e+000   0.0000e+000	
1243.98	252.84	2.38E-03	1.00E-02	0	0.00000000e+000   0.0000e+000	
1246.38	252.72	2.34E-03	1.00E-02	0	0.00000000e+000   0.0000e+000	
1248.783	252.6	2.35E-03	1.00E-02	0	0.00000000e+000   0.0000e+000	
1251.186	252.48	2.37E-03	1.00E-02	0	0.00000000e+000   0.0000e+000	
1253.583	252.37	2.36E-03	1.00E-02	0	0.00000000e+000   0.0000e+000	
1255.98	252.25	2.37E-03	1.00E-02	0	0.00000000e+000   0.0000e+000	
1258.38	252.13	2.34E-03	1.00E-02	0	0.00000000e+000   0.0000e+000	
1260.781	252.01	2.34E-03	1.00E-02	0	0.00000000e+000   0.0000e+000	
1263.181	251.89	2.34E-03	1.00E-02	0	0.00000000e+000   0.0000e+000	
1265.586	251.77	2.37E-03	1.00E-02	0	0.00000000e+000   0.0000e+000	
1267.982	251.65	2.32E-03	1.00E-02	0	0.00000000e+000   0.0000e+000	
1270.382	251.53	2.32E-03	1.00E-02	0	0.00000000e+000   0.0000e+000	
1272.783	251.42	2.29E-03	1.00E-02	0	0.00000000e+000   0.0000e+000	
1275.185	251.3	2.31E-03	1.00E-02	0	0.00000000e+000   0.0000e+000	
1277.591	251.18	2.29E-03	1.00E-02	0	0.00000000e+000   0.0000e+000	
1279.986	251.06	2.30E-03	1.00E-02	0	0.00000000e+000   0.0000e+000	
1282.386	250.94	2.34E-03	1.00E-02	0	0.00000000e+000   0.0000e+000	
1284.788	250.82	2.28E-03	1.00E-02	0	0.00000000e+000   0.0000e+000	
1287.191	250.71	2.34E-03	1.00E-02	0	0.00000000e+000   0.0000e+000	
1289.596	250.59	2.32E-03	1.00E-02	0	0.00000000e+000   0.0000e+000	
1291.988	250.47	2.30E-03	1.00E-02	0	0.00000000e+000   0.0000e+000	
1294.39	250.35	2.31E-03	1.00E-02	0	0.00000000e+000   0.0000e+000	
1296.788	250.23	2.32E-03	1.00E-02	0	0.00000000e+000   0.0000e+000	
1299.189	250.11	2.31E-03	1.00E-02	0	0.00000000e+000   0.0000e+000	
1301.592	249.99	2.30E-03	1.00E-02	0	0.00000000e+000   0.0000e+000	
1303.989	249.87	2.34E-03	1.00E-02	0	0.00000000e+000   0.0000e+000	
1306.389	249.76	2.31E-03	1.00E-02	0	0.00000000e+000   0.0000e+000	
1308.79	249.64	2.31E-03	1.00E-02	0	0.00000000e+000   0.0000e+000	
1311.191	249.52	2.33E-03	1.00E-02	0	0.00000000e+000   0.0000e+000	
1313.594	249.4	2.34E-03	1.00E-02	0	0.00000000e+000   0.0000e+000	
1315.992	249.28	2.26E-03	1.00E-02	0	0.00000000e+000   0.0000e+000	
1318.392	249.16	2.29E-03	1.00E-02	0	0.00000000e+000   0.0000e+000	
1320.793	249.04	2.33E-03	1.00E-02	0	0.00000000e+000   0.0000e+000	
1323.195	248.92	2.28E-03	1.00E-02	0	0.00000000e+000   0.0000e+000	
1325.597	248.8	2.27E-03	1.00E-02	0	0.00000000e+000   0.0000e+000	
1327.997	248.68	2.33E-03	1.00E-02	0	0.00000000e+000   0.0000e+000	
1330.396	248.56	2.29E-03	1.00E-02	0	0.00000000e+000   0.0000e+000	
1332.799	248.45	2.30E-03	1.00E-02	0	0.00000000e+000   0.0000e+000	
1335.201	248.33	2.25E-03	1.00E-02	0	0.00000000e+000   0.0000e+000	
1337.6	248.21	2.26E-03	1.00E-02	0	0.00000000e+000   0.0000e+000	
1339.998	248.09	2.27E-03	1.00E-02	0	0.00000000e+000   0.0000e+000	
1342.4	247.97	2.28E-03	1.00E-02	0	0.00000000e+000   0.0000e+000	
1344.797	247.85	2.27E-03	1.00E-02	0	0.00000000e+000   0.0000e+000	
1347.198	247.73	2.35E-03	1.00E-02	0	0.00000000e+000   0.0000e+000	
1349.601	247.61	2.28E-03	1.00E-02	0	0.00000000e+000   0.0000e+000	
1351.998	247.49	2.27E-03	1.00E-02	0	0.00000000e+000   0.0000e+000	
1354.398	247.37	2.24E-03	1.00E-02	0	0.00000000e+000   0.0000e+000	
1356.799	247.25	2.34E-03	1.00E-02	0	0.00000000e+000   0.0000e+000	
1359.199	247.13	2.30E-03	1.00E-02	0	0.00000000e+000   0.0000e+000	
1361.602	247.01	2.26E-03	1.00E-02	0	0.00000000e+000   0.0000e+000	
1364.001	246.89	2.30E-03	1.00E-02	0	0.00000000e+000   0.0000e+000	
1366.4	246.77	2.30E-03	1.00E-02	0	0.00000000e+000   0.0000e+000	
1368.802	246.65	2.30E-03	1.00E-02	0	0.00000000e+000   0.0000e+000	
1371.202	246.53	2.30E-03	1.00E-02	0	0.00000000e+000   0.0000e+000	
1373.608	246.41	2.29E-03	1.00E-02	0	0.00000000e+000   0.0000e+000	
1376.003	246.29	2.28E-03	1.00E-02	0	0.00000000e+000   0.0000e+000	
1378.405	246.17	2.27E-03	1.00E-02	0	0.00000000e+000   0.0000e+000	
1380.806	246.05	2.33E-03	1.00E-02	0	0.00000000e+000   0.0000e+000	
1383.209	245.93	2.27E-03	1.00E-02	0	0.00000000e+000   0.0000e+000	
1385.614	245.81	2.26E-03	1.00E-02	0	0.00000000e+000   0.0000e+000	
1388.007	245.69	2.29E-03	1.00E-02	0	0.00000000e+000   0.0000e+000	
1390.408	245.57	2.29E-03	1.00E-02	0	0.00000000e+000   0.0000e+000	
1392.81	245.45	2.26E-03	1.00E-02	0	0.00000000e+000   0.0000e+000	
1395.212	245.33	2.30E-03	1.00E-02	0	0.00000000e+000   0.0000e+000	
1397.611	245.21	2.31E-03	1.00E-02	0	0.00000000e+000   0.0000e+000	
1400.009	245.09	2.27E-03	1.00E-02	0	0.00000000e+000   0.0000e+000	
1402.408	244.97	2.32E-03	1.00E-02	0	0.00000000e+000   0.0000e+000	
1404.809	244.84	2.26E-03	1.00E-02	0	0.00000000e+000   0.0000e+000	
1407.209	244.72	2.27E-03	1.00E-02	0	0.00000000e+000   0.0000e+000	
1409.612	244.6	2.27E-03	1.00E-02	0	0.00000000e+000   0.0000e+000	
1412.009	244.48	2.26E-03	1.00E-02	0	0.00000000e+000   0.0000e+000	
1414.411	244.36	2.28E-03	1.00E-02	0	0.00000000e+000   0.0000e+000	
1416.811	244.23	2.28E-03	1.00E-02	0	0.00000000e+000   0.0000e+000	
1419.212	244.11	2.28E-03	1.00E-02	0	0.00000000e+000   0.0000e+000	
1421.615	243.99	2.25E-03	1.00E-02	0	0.00000000e+000   0.0000e+000	
1424.013	243.87	2.28E-03	1.00E-02	0	0.00000000e+000   0.0000e+000	
1426.413	243.75	2.30E-03	1.00E-02	0	0.00000000e+000   0.0000e+000	
1428.816	243.62	2.28E-03	1.00E-02	0	0.00000000e+000   0.0000e+000	
1431.218	243.5	2.29E-03	1.00E-02	0	0.00000000e+000   0.0000e+000	
1433.625	243.38	2.24E-03	1.00E-02	0	0.00000000e+000   0.0000e+000	
1436.015	243.26	2.27E-03	1.00E-02	0	0.00000000e+000   0.0000e+000	
1438.418	243.14	2.29E-03	1.00E-02	0	0.00000000e+000   0.0000e+000	
1440.816	243.02	2.31E-03	1.00E-02	0	0.00000000e+000   0.0000e+000	
1443.216	242.9	2.29E-03	1.00E-02	0	0.00000000e+000   0.0000e+000	
1445.62	242.77	2.29E-03	1.00E-02	0	0.00000000e+000   0.0000e+000	
1448.015	242.65	2.24E-03	1.00E-02	0	0.00000000e+000   0.0000e+000	
1450.417	242.53	2.24E-03	1.00E-02	0	0.00000000e+000   0.0000e+000	
1452.818	242.41	2.30E-03	1.00E-02	0	0.00000000e+000   0.0000e+000	
1455.218	242.29	2.26E-03	1.00E-02	0	0.00000000e+000   0.0000e+000	
1457.622	242.17	2.27E-03	1.00E-02	0	0.00000000e+000   0.0000e+000	
1460.018	242.04	2.25E-03	1.00E-02	0	0.00000000e+000   0.0000e+000	
1462.419	241.92	2.28E-03	1.00E-02	0	0.00000000e+000   0.0000e+000	
1464.82	241.8	2.20E-03	1.00E-02	0	0.00000000e+000   0.0000e+000	
1467.223	241.68	2.25E-03	1.00E-02	0	0.00000000e+000   0.0000e+000	
1469.625	241.55	2.26E-03	1.00E-02	0	0.00000000e+000   0.0000e+000	
1472.024	241.43	2.27E-03	1.00E-02	0	0.00000000e+000   0.0000e+000	
1474.424	241.31	2.23E-03	1.00E-02	0	0.00000000e+000   0.0000e+000	
1476.826	241.19	2.24E-03	1.00E-02	0	0.00000000e+000   0.0000e+000	
1479.228	241.07	2.22E-03	1.00E-02	0	0.00000000e+000   0.0000e+000	
1481.628	240.95	2.26E-03	1.00E-02	0	0.00000000e+000   0.0000e+000	
1484.026	240.83	2.23E-03	1.00E-02	0	0.00000000e+000   0.0000e+000	
1486.429	240.71	2.22E-03	1.00E-02	0	0.00000000e+000   0.0000e+000	
1488.825	240.58	2.22E-03	1.00E-02	0	0.00000000e+000   0.0000e+000	
1491.225	240.46	2.22E-03	1.00E-02	0	0.00000000e+000   0.0000e+000	
1493.629	240.34	2.18E-03	1.00E-02	0	0.00000000e+000   0.0000e+000	
1496.025	240.22	2.23E-03	1.00E-02	0	0.00000000e+000   0.0000e+000	
1498.426	240.1	2.20E-03	1.00E-02	0	0.00000000e+000   0.0000e+000	
1500.826	239.97	2.24E-03	1.00E-02	0	0.00000000e+000   0.0000e+000	
1503.227	239.85	2.23E-03	1.00E-02	0	0.00000000e+000   0.0000e+000	
1505.631	239.73	2.25E-03	1.00E-02	0	0.00000000e+000   0.0000e+000	
1508.028	239.61	2.21E-03	1.00E-02	0	0.00000000e+000   0.0000e+000	
1510.428	239.49	2.21E-03	1.00E-02	0	0.00000000e+000   0.0000e+000	
1512.829	239.37	2.19E-03	1.00E-02	0	0.00000000e+000   0.0000e+000	
1515.229	239.25	2.22E-03	1.00E-02	0	0.00000000e+000   0.0000e+000	
1517.634	239.13	2.22E-03	1.00E-02	0	0.00000000e+000   0.0000e+000	
1520.031	239.01	2.19E-03	1.00E-02	0	0.00000000e+000   0.0000e+000	
1522.434	238.89	2.26E-03	1.00E-02	0	0.00000000e+000   0.0000e+000	
1524.836	238.77	2.20E-03	1.00E-02	0	0.00000000e+000   0.0000e+000	
1527.239	238.65	2.16E-03	1.00E-02	0	0.00000000e+000   0.0000e+000	
1529.637	238.53	2.21E-03	1.00E-02	0	0.00000000e+000   0.0000e+000	
1532.036	238.41	2.23E-03	1.00E-02	0	0.00000000e+000   0.0000e+000	
1534.441	238.29	2.20E-03	1.00E-02	0	0.00000000e+000   0.0000e+000	
1536.834	238.17	2.20E-03	1.00E-02	0	0.00000000e+000   0.0000e+000	
1539.234	238.05	2.23E-03	1.00E-02	0	0.00000000e+000   0.0000e+000	
1541.638	237.93	2.20E-03	1.00E-02	0	0.00000000e+000   0.0000e+000	
1544.035	237.8	2.23E-03	1.00E-02	0	0.00000000e+000   0.0000e+000	
1546.435	237.69	2.22E-03	1.00E-02	0	0.00000000e+000   0.0000e+000	
1548.835	237.57	2.22E-03	1.00E-02	0	0.00000000e+000   0.0000e+000	
1551.236	237.44	2.22E-03	1.00E-02	0	0.00000000e+000   0.0000e+000	
1553.639	237.32	2.22E-03	1.00E-02	0	0.00000000e+000   0.0000e+000	
1556.038	237.2	2.22E-03	1.00E-02	0	0.00000000e+000   0.0000e+000	
1558.438	237.09	2.19E-03	1.00E-02	0	0.00000000e+000   0.0000e+000	
1560.838	236.96	2.20E-03	1.00E-02	0	0.00000000e+000   0.0000e+000	
1563.238	236.84	2.21E-03	1.00E-02	0	0.00000000e+000   0.0000e+000	
1565.644	236.72	2.18E-03	1.00E-02	0	0.00000000e+000   0.0000e+000	
1568.039	236.61	2.22E-03	1.00E-02	0	0.00000000e+000   0.0000e+000	
1570.442	236.49	2.20E-03	1.00E-02	0	0.00000000e+000   0.0000e+000	
1572.842	236.37	2.18E-03	1.00E-02	0	0.00000000e+000   0.0000e+000	
1575.245	236.25	2.19E-03	1.00E-02	0	0.00000000e+000   0.0000e+000	
1577.651	236.13	2.20E-03	1.00E-02	0	0.00000000e+000   0.0000e+000	
1580.043	236.01	2.22E-03	1.00E-02	0	0.00000000e+000   0.0000e+000	
1582.444	235.89	2.19E-03	1.00E-02	0	0.00000000e+000   0.0000e+000	
1584.846	235.77	2.19E-03	1.00E-02	0	0.00000000e+000   0.0000e+000	
1587.243	235.65	2.19E-03	1.00E-02	0	0.00000000e+000   0.0000e+000	
1589.647	235.53	2.15E-03	1.00E-02	0	0.00000000e+000   0.0000e+000	
1592.045	235.41	2.18E-03	1.00E-02	0	0.00000000e+000   0.0000e+000	
1594.445	235.29	2.19E-03	1.00E-02	0	0.00000000e+000   0.0000e+000	
1596.845	235.17	2.16E-03	1.00E-02	0	0.00000000e+000   0.0000e+000	
1599.245	235.05	2.22E-03	1.00E-02	0	0.00000000e+000   0.0000e+000	
1601.649	234.94	2.14E-03	1.00E-02	0	0.00000000e+000   0.0000e+000	
1604.046	234.82	2.20E-03	1.00E-02	0	0.00000000e+000   0.0000e+000	
1606.447	234.7	2.22E-03	1.00E-02	0	0.00000000e+000   0.0000e+000	
1608.847	234.58	2.17E-03	1.00E-02	0	0.00000000e+000   0.0000e+000	
1611.248	234.46	2.13E-03	1.00E-02	0	0.00000000e+000   0.0000e+000	
1613.652	234.34	2.22E-03	1.00E-02	0	0.00000000e+000   0.0000e+000	
1616.049	234.22	2.19E-03	1.00E-02	0	0.00000000e+000   0.0000e+000	
1618.45	234.1	2.20E-03	1.00E-02	0	0.00000000e+000   0.0000e+000	
1620.85	233.98	2.17E-03	1.00E-02	0	0.00000000e+000   0.0000e+000	
1623.252	233.86	2.20E-03	1.00E-02	0	0.00000000e+000   0.0000e+000	
1625.659	233.74	2.16E-03	1.00E-02	0	0.00000000e+000   0.0000e+000	
1628.058	233.63	2.19E-03	1.00E-02	0	0.00000000e+000   0.0000e+000	
1630.452	233.51	2.22E-03	1.00E-02	0	0.00000000e+000   0.0000e+000	
1632.855	233.39	2.15E-03	1.00E-02	0	0.00000000e+000   0.0000e+000	
1635.252	233.27	2.17E-03	1.00E-02	0	0.00000000e+000   0.0000e+000	
1637.656	233.15	2.19E-03	1.00E-02	0	0.00000000e+000   0.0000e+000	
1640.052	233.03	2.16E-03	1.00E-02	0	0.00000000e+000   0.0000e+000	
1642.453	232.91	2.21E-03	1.00E-02	0	0.00000000e+000   0.0000e+000	
1644.854	232.79	2.24E-03	1.00E-02	0	0.00000000e+000   0.0000e+000	
1647.254	232.67	2.17E-03	1.00E-02	0	0.00000000e+000   0.0000e+000	
1649.658	232.56	2.18E-03	1.00E-02	0	0.00000000e+000   0.0000e+000	
1652.055	232.44	2.21E-03	1.00E-02	0	0.00000000e+000   0.0000e+000	
1654.455	232.32	2.18E-03	1.00E-02	0	0.00000000e+000   0.0000e+000	
1656.855	232.2	2.20E-03	1.00E-02	0	0.00000000e+000   0.0000e+000	
1659.257	232.08	2.16E-03	1.00E-02	0	0.00000000e+000   0.0000e+000	
1661.663	231.96	2.19E-03	1.00E-02	0	0.00000000e+000   0.0000e+000	
1664.058	231.84	2.18E-03	1.00E-02	0	0.00000000e+000   0.0000e+000	
1666.458	231.72	2.10E-03	1.00E-02	0	0.00000000e+000   0.0000e+000	
1668.861	231.61	2.17E-03	1.00E-02	0	0.00000000e+000   0.0000e+000	
1671.263	231.49	2.16E-03	1.00E-02	0	0.00000000e+000   0.0000e+000	
1673.669	231.37	2.18E-03	1.00E-02	0	0.00000000e+000   0.0000e+000	
1676.061	231.25	2.18E-03	1.00E-02	0	0.00000000e+000   0.0000e+000	
1678.463	231.13	2.14E-03	1.00E-02	0	0.00000000e+000   0.0000e+000	
1680.866	231.01	2.19E-03	1.00E-02	0	0.00000000e+000   0.0000e+000	
1683.268	230.89	2.15E-03	1.00E-02	0	0.00000000e+000   0.0000e+000	
1685.665	230.78	2.21E-03	1.00E-02	0	0.00000000e+000   0.0000e+000	
1688.062	230.66	2.18E-03	1.00E-02	0	0.00000000e+000   0.0000e+000	
1690.462	230.54	2.17E-03	1.00E-02	0	0.00000000e+000   0.0000e+000	
1692.863	230.42	2.14E-03	1.00E-02	0	0.00000000e+000   0.0000e+000	
1695.264	230.3	2.15E-03	1.00E-02	0	0.00000000e+000   0.0000e+000	
1697.668	230.18	2.18E-03	1.00E-02	0	0.00000000e+000   0.0000e+000	
1700.065	230.06	2.18E-03	1.00E-02	0	0.00000000e+000   0.0000e+000	
1702.465	229.94	2.16E-03	1.00E-02	0	0.00000000e+000   0.0000e+000	
1704.865	229.82	2.17E-03	1.00E-02	0	0.00000000e+000   0.0000e+000	
1707.266	229.7	2.15E-03	1.00E-02	0	0.00000000e+000   0.0000e+000	
1709.671	229.59	2.17E-03	1.00E-02	0	0.00000000e+000   0.0000e+000	
1712.067	229.46	2.17E-03	1.00E-02	0	0.00000000e+000   0.0000e+000	
1714.469	229.35	2.15E-03	1.00E-02	0	0.00000000e+000   0.0000e+000	
1716.869	229.23	2.20E-03	1.00E-02	0	0.00000000e+000   0.0000e+000	
1719.271	229.1	2.12E-03	1.00E-02	0	0.00000000e+000   0.0000e+000	
1721.677	228.99	2.15E-03	1.00E-02	0	0.00000000e+000   0.0000e+000	
1724.07	228.87	2.16E-03	1.00E-02	0	0.00000000e+000   0.0000e+000	
1726.471	228.75	2.19E-03	1.00E-02	0	0.00000000e+000   0.0000e+000	
1728.874	228.63	2.17E-03	1.00E-02	0	0.00000000e+000   0.0000e+000	
1731.27	228.51	2.10E-03	1.00E-02	0	0.00000000e+000   0.0000e+000	
1733.674	228.39	2.15E-03	1.00E-02	0	0.00000000e+000   0.0000e+000	
1736.07	228.27	2.15E-03	1.00E-02	0	0.00000000e+000   0.0000e+000	
1738.471	228.15	2.10E-03	1.00E-02	0	0.00000000e+000   0.0000e+000	
1740.871	228.03	2.16E-03	1.00E-02	0	0.00000000e+000   0.0000e+000	
1743.271	227.91	2.12E-03	1.00E-02	0	0.00000000e+000   0.0000e+000	
1745.675	227.79	2.12E-03	1.00E-02	0	0.00000000e+000   0.0000e+000	
1748.073	227.67	2.15E-03	1.00E-02	0	0.00000000e+000   0.0000e+000	
1750.473	227.55	2.14E-03	1.00E-02	0	0.00000000e+000   0.0000e+000	
1752.874	227.43	2.16E-03	1.00E-02	0	0.00000000e+000   0.0000e+000	
1755.274	227.31	2.18E-03	1.00E-02	0	0.00000000e+000   0.0000e+000	
1757.678	227.19	2.16E-03	1.00E-02	0	0.00000000e+000   0.0000e+000	
1760.076	227.07	2.15E-03	1.00E-02	0	0.00000000e+000   0.0000e+000	
1762.475	226.95	2.22E-03	1.00E-02	0	0.00000000e+000   0.0000e+000	
1764.876	226.83	2.15E-03	1.00E-02	0	0.00000000e+000   0.0000e+000	
1767.279	226.71	2.15E-03	1.00E-02	0	0.00000000e+000   0.0000e+000	
1769.684	226.59	2.18E-03	1.00E-02	0	0.00000000e+000   0.0000e+000	
1772.083	226.47	2.20E-03	1.00E-02	0	0.00000000e+000   0.0000e+000	
1774.485	226.35	2.18E-03	1.00E-02	0	0.00000000e+000   0.0000e+000	
1776.88	226.23	2.16E-03	1.00E-02	0	0.00000000e+000   0.0000e+000	
1779.283	226.12	2.18E-03	1.00E-02	0	0.00000000e+000   0.0000e+000	
1781.683	226	2.17E-03	1.00E-02	0	0.00000000e+000   0.0000e+000	
1784.081	225.88	2.15E-03	1.00E-02	0	0.00000000e+000   0.0000e+000	
1786.48	225.76	2.18E-03	1.00E-02	0	0.00000000e+000   0.0000e+000	
1788.881	225.64	2.16E-03	1.00E-02	0	0.00000000e+000   0.0000e+000	
1791.281	225.52	2.15E-03	1.00E-02	0	0.00000000e+000   0.0000e+000	
1793.685	225.4	2.19E-03	1.00E-02	0	0.00000000e+000   0.0000e+000	
1796.081	225.28	2.13E-03	1.00E-02	0	0.00000000e+000   0.0000e+000	
1798.482	225.16	2.17E-03	1.00E-02	0	0.00000000e+000   0.0000e+000	
1800.884	225.04	2.16E-03	1.00E-02	0	0.00000000e+000   0.0000e+000	
1803.284	224.92	2.11E-03	1.00E-02	0	0.00000000e+000   0.0000e+000	
1805.688	224.8	2.09E-03	1.00E-02	0	0.00000000e+000   0.0000e+000	
1808.084	224.68	2.16E-03	1.00E-02	0	0.00000000e+000   0.0000e+000	
1810.486	224.56	2.13E-03	1.00E-02	0	0.00000000e+000   0.0000e+000	
1812.886	224.44	2.14E-03	1.00E-02	0	0.00000000e+000   0.0000e+000	
1815.287	224.32	2.14E-03	1.00E-02	0	0.00000000e+000   0.0000e+000	
1817.691	224.2	2.12E-03	1.00E-02	0	0.00000000e+000   0.0000e+000	
1820.09	224.08	2.15E-03	1.00E-02	0	0.00000000e+000   0.0000e+000	
1822.493	223.96	2.14E-03	1.00E-02	0	0.00000000e+000   0.0000e+000	
1824.895	223.84	2.14E-03	1.00E-02	0	0.00000000e+000   0.0000e+000	
1827.291	223.72	2.16E-03	1.00E-02	0	0.00000000e+000   0.0000e+000	
1829.695	223.6	2.10E-03	1.00E-02	0	0.00000000e+000   0.0000e+000	
1832.096	223.48	2.12E-03	1.00E-02	0	0.00000000e+000   0.0000e+000	
1834.49	223.36	2.16E-03	1.00E-02	0	0.00000000e+000   0.0000e+000	
1836.89	223.24	2.14E-03	1.00E-02	0	0.00000000e+000   0.0000e+000	
1839.29	223.12	2.13E-03	1.00E-02	0	0.00000000e+000   0.0000e+000	
1841.694	223	2.15E-03	1.00E-02	0	0.00000000e+000   0.0000e+000	
1844.091	222.88	2.13E-03	1.00E-02	0	0.00000000e+000   0.0000e+000	
1846.492	222.76	2.15E-03	1.00E-02	0	0.00000000e+000   0.0000e+000	
1848.892	222.64	2.13E-03	1.00E-02	0	0.00000000e+000   0.0000e+000	
1851.294	222.52	2.15E-03	1.00E-02	0	0.00000000e+000   0.0000e+000	
1853.697	222.4	2.17E-03	1.00E-02	0	0.00000000e+000   0.0000e+000	
1856.094	222.28	2.15E-03	1.00E-02	0	0.00000000e+000   0.0000e+000	
1858.495	222.16	2.13E-03	1.00E-02	0	0.00000000e+000   0.0000e+000	
1860.894	222.04	2.15E-03	1.00E-02	0	0.00000000e+000   0.0000e+000	
1863.296	221.92	2.16E-03	1.00E-02	0	0.00000000e+000   0.0000e+000	
1865.699	221.8	2.15E-03	1.00E-02	0	0.00000000e+000   0.0000e+000	
1868.098	221.68	2.12E-03	1.00E-02	0	0.00000000e+000   0.0000e+000	
1870.502	221.56	2.14E-03	1.00E-02	0	0.00000000e+000   0.0000e+000	
1872.904	221.44	2.13E-03	1.00E-02	0	0.00000000e+000   0.0000e+000	
1875.298	221.32	2.15E-03	1.00E-02	0	0.00000000e+000   0.0000e+000	
1877.704	221.2	2.15E-03	1.00E-02	0	0.00000000e+000   0.0000e+000	
1880.098	221.08	2.12E-03	1.00E-02	0	0.00000000e+000   0.0000e+000	
1882.498	220.96	2.12E-03	1.00E-02	0	0.00000000e+000   0.0000e+000	
1884.899	220.84	2.14E-03	1.00E-02	0	0.00000000e+000   0.0000e+000	
1887.301	220.72	2.12E-03	1.00E-02	0	0.00000000e+000   0.0000e+000	
1889.704	220.6	2.06E-03	1.00E-02	0	0.00000000e+000   0.0000e+000	
1892.101	220.48	2.14E-03	1.00E-02	0	0.00000000e+000   0.0000e+000	
1894.501	220.36	2.08E-03	1.00E-02	0	0.00000000e+000   0.0000e+000	
1896.901	220.24	2.09E-03	1.00E-02	0	0.00000000e+000   0.0000e+000	
1899.302	220.12	2.12E-03	1.00E-02	0	0.00000000e+000   0.0000e+000	
1901.706	220	2.15E-03	1.00E-02	0	0.00000000e+000   0.0000e+000	
1904.103	219.88	2.12E-03	1.00E-02	0	0.00000000e+000   0.0000e+000	
1906.504	219.76	2.12E-03	1.00E-02	0	0.00000000e+000   0.0000e+000	
1908.904	219.64	2.10E-03	1.00E-02	0	0.00000000e+000   0.0000e+000	
1911.306	219.53	2.12E-03	1.00E-02	0	0.00000000e+000   0.0000e+000	
1913.708	219.41	2.11E-03	1.00E-02	0	0.00000000e+000   0.0000e+000	
1916.104	219.29	2.09E-03	1.00E-02	0	0.00000000e+000   0.0000e+000	
1918.507	219.17	2.09E-03	1.00E-02	0	0.00000000e+000   0.0000e+000	
1920.909	219.05	2.11E-03	1.00E-02	0	0.00000000e+000   0.0000e+000	
1923.313	218.93	2.13E-03	1.00E-02	0	0.00000000e+000   0.0000e+000	
1925.712	218.81	2.09E-03	1.00E-02	0	0.00000000e+000   0.0000e+000	
1928.109	218.69	2.11E-03	1.00E-02	0	0.00000000e+000   0.0000e+000	
1930.51	218.58	2.08E-03	1.00E-02	0	0.00000000e+000   0.0000e+000	
1932.908	218.46	2.13E-03	1.00E-02	0	0.00000000e+000   0.0000e+000	
1935.309	218.34	2.13E-03	1.00E-02	0	0.00000000e+000   0.0000e+000	
1937.711	218.22	2.10E-03	1.00E-02	0	0.00000000e+000   0.0000e+000	
1940.109	218.1	2.15E-03	1.00E-02	0	0.00000000e+000   0.0000e+000	
1942.51	217.98	2.08E-03	1.00E-02	0	0.00000000e+000   0.0000e+000	
1944.91	217.86	2.11E-03	1.00E-02	0	0.00000000e+000   0.0000e+000	
1947.311	217.74	2.11E-03	1.00E-02	0	0.00000000e+000   0.0000e+000	
1949.714	217.62	2.12E-03	1.00E-02	0	0.00000000e+000   0.0000e+000	
1952.112	217.5	2.13E-03	1.00E-02	0	0.00000000e+000   0.0000e+000	
1954.512	217.39	2.12E-03	1.00E-02	0	0.00000000e+000   0.0000e+000	
1956.915	217.27	2.10E-03	1.00E-02	0	0.00000000e+000   0.0000e+000	
1959.314	217.15	2.08E-03	1.00E-02	0	0.00000000e+000   0.0000e+000	
1961.719	217.03	2.11E-03	1.00E-02	0	0.00000000e+000   0.0000e+000	
1964.116	216.91	2.12E-03	1.00E-02	0	0.00000000e+000   0.0000e+000	
1966.518	216.79	2.09E-03	1.00E-02	0	0.00000000e+000   0.0000e+000	
1968.921	216.67	2.08E-03	1.00E-02	0	0.00000000e+000   0.0000e+000	
1971.316	216.56	2.11E-03	1.00E-02	0	0.00000000e+000   0.0000e+000	
1973.722	216.44	2.10E-03	1.00E-02	0	0.00000000e+000   0.0000e+000	
1976.121	216.32	2.11E-03	1.00E-02	0	0.00000000e+000   0.0000e+000	
1978.517	216.2	2.07E-03	1.00E-02	0	0.00000000e+000   0.0000e+000	
1980.918	216.08	2.06E-03	1.00E-02	0	0.00000000e+000   0.0000e+000	
1983.318	215.96	2.09E-03	1.00E-02	0	0.00000000e+000   0.0000e+000	
1985.722	215.84	2.09E-03	1.00E-02	0	0.00000000e+000   0.0000e+000	
1988.119	215.73	2.12E-03	1.00E-02	0	0.00000000e+000   0.0000e+000	
1990.518	215.61	2.09E-03	1.00E-02	0	0.00000000e+000   0.0000e+000	
1992.92	215.49	2.04E-03	1.00E-02	0	0.00000000e+000   0.0000e+000	
1995.32	215.37	2.07E-03	1.00E-02	0	0.00000000e+000   0.0000e+000	
1997.724	215.25	2.09E-03	1.00E-02	0	0.00000000e+000   0.0000e+000	
2000.121	215.13	2.05E-03	1.00E-02	0	0.00000000e+000   0.0000e+000	
2002.521	215.02	2.06E-03	1.00E-02	0	0.00000000e+000   0.0000e+000	
2004.921	214.89	2.08E-03	1.00E-02	0	0.00000000e+000   0.0000e+000	
2007.324	214.77	2.10E-03	1.00E-02	0	0.00000000e+000   0.0000e+000	
2009.726	214.65	2.09E-03	1.00E-02	0	0.00000000e+000   0.0000e+000	
2012.125	214.53	2.07E-03	1.00E-02	0	0.00000000e+000   0.0000e+000	
2014.525	214.41	2.06E-03	1.00E-02	0	0.00000000e+000   0.0000e+000	
2016.928	214.29	2.08E-03	1.00E-02	0	0.00000000e+000   0.0000e+000	
2019.33	214.17	2.09E-03	1.00E-02	0	0.00000000e+000   0.0000e+000	
2021.729	214.05	2.10E-03	1.00E-02	0	0.00000000e+000   0.0000e+000	
2024.127	213.93	2.12E-03	1.00E-02	0	0.00000000e+000   0.0000e+000	
2026.53	213.81	2.10E-03	1.00E-02	0	0.00000000e+000   0.0000e+000	
2028.926	213.69	2.12E-03	1.00E-02	0	0.00000000e+000   0.0000e+000	
2031.327	213.57	2.07E-03	1.00E-02	0	0.00000000e+000   0.0000e+000	
2033.73	213.45	2.09E-03	1.00E-02	0	0.00000000e+000   0.0000e+000	
2036.127	213.33	2.11E-03	1.00E-02	0	0.00000000e+000   0.0000e+000	
2038.527	213.21	2.07E-03	1.00E-02	0	0.00000000e+000   0.0000e+000	
2040.928	213.09	2.06E-03	1.00E-02	0	0.00000000e+000   0.0000e+000	
2043.328	212.97	2.11E-03	1.00E-02	0	0.00000000e+000   0.0000e+000	
2045.733	212.85	2.06E-03	1.00E-02	0	0.00000000e+000   0.0000e+000	
2048.129	212.73	2.07E-03	1.00E-02	0	0.00000000e+000   0.0000e+000	
2050.53	212.61	2.08E-03	1.00E-02	0	0.00000000e+000   0.0000e+000	
2052.931	212.49	2.09E-03	1.00E-02	0	0.00000000e+000   0.0000e+000	
2055.332	212.37	2.08E-03	1.00E-02	0	0.00000000e+000   0.0000e+000	
2057.736	212.24	2.10E-03	1.00E-02	0	0.00000000e+000   0.0000e+000	
2060.132	212.12	2.09E-03	1.00E-02	0	0.00000000e+000   0.0000e+000	
2062.535	212.01	2.12E-03	1.00E-02	0	0.00000000e+000   0.0000e+000	
2064.935	211.88	2.11E-03	1.00E-02	0	0.00000000e+000   0.0000e+000	
2067.337	211.76	2.08E-03	1.00E-02	0	0.00000000e+000   0.0000e+000	
2069.743	211.64	2.04E-03	1.00E-02	0	0.00000000e+000   0.0000e+000	
2072.135	211.53	2.08E-03	1.00E-02	0	0.00000000e+000   0.0000e+000	
2074.536	211.4	2.09E-03	1.00E-02	0	0.00000000e+000   0.0000e+000	
2076.939	211.29	2.11E-03	1.00E-02	0	0.00000000e+000   0.0000e+000	
2079.336	211.16	2.07E-03	1.00E-02	0	0.00000000e+000   0.0000e+000	
2081.739	211.05	2.06E-03	1.00E-02	0	0.00000000e+000   0.0000e+000	
2084.136	210.92	2.10E-03	1.00E-02	0	0.00000000e+000   0.0000e+000	
2086.537	210.8	2.05E-03	1.00E-02	0	0.00000000e+000   0.0000e+000	
2088.937	210.68	2.08E-03	1.00E-02	0	0.00000000e+000   0.0000e+000	
2091.338	210.56	2.07E-03	1.00E-02	0	0.00000000e+000   0.0000e+000	
2093.741	210.44	2.11E-03	1.00E-02	0	0.00000000e+000   0.0000e+000	
2096.139	210.32	2.05E-03	1.00E-02	0	0.00000000e+000   0.0000e+000	
2098.539	210.2	2.05E-03	1.00E-02	0	0.00000000e+000   0.0000e+000	
2100.94	210.08	2.07E-03	1.00E-02	0	0.00000000e+000   0.0000e+000	
2103.34	209.96	2.06E-03	1.00E-02	0	0.00000000e+000   0.0000e+000	
2105.744	209.84	2.09E-03	1.00E-02	0	0.00000000e+000   0.0000e+000	
2108.143	209.72	2.07E-03	1.00E-02	0	0.00000000e+000   0.0000e+000	
2110.541	209.6	2.08E-03	1.00E-02	0	0.00000000e+000   0.0000e+000	
2112.944	209.49	2.02E-03	1.00E-02	0	0.00000000e+000   0.0000e+000	
2115.344	209.37	2.01E-03	1.00E-02	0	0.00000000e+000   0.0000e+000	
2117.75	209.25	2.07E-03	1.00E-02	0	0.00000000e+000   0.0000e+000	
2120.15	209.13	2.06E-03	1.00E-02	0	0.00000000e+000   0.0000e+000	
2122.545	209.01	2.05E-03	1.00E-02	0	0.00000000e+000   0.0000e+000	
2124.946	208.89	2.06E-03	1.00E-02	0	0.00000000e+000   0.0000e+000	
2127.348	208.77	2.05E-03	1.00E-02	0	0.00000000e+000   0.0000e+000	
2129.75	208.66	2.02E-03	1.00E-02	0	0.00000000e+000   0.0000e+000	
2132.146	208.54	2.06E-03	1.00E-02	0	0.00000000e+000   0.0000e+000	
2134.546	208.42	2.04E-03	1.00E-02	0	0.00000000e+000   0.0000e+000	
2136.947	208.3	2.08E-03	1.00E-02	0	0.00000000e+000   0.0000e+000	
2139.346	208.18	2.03E-03	1.00E-02	0	0.00000000e+000   0.0000e+000	
2141.75	208.06	2.07E-03	1.00E-02	0	0.00000000e+000   0.0000e+000	
2144.147	207.94	2.04E-03	1.00E-02	0	0.00000000e+000   0.0000e+000	
2146.547	207.82	2.03E-03	1.00E-02	0	0.00000000e+000   0.0000e+000	
2148.949	207.71	2.06E-03	1.00E-02	0	0.00000000e+000   0.0000e+000	
2151.349	207.59	2.03E-03	1.00E-02	0	0.00000000e+000   0.0000e+000	
2153.753	207.47	2.05E-03	1.00E-02	0	0.00000000e+000   0.0000e+000	
2156.15	207.35	2.06E-03	1.00E-02	0	0.00000000e+000   0.0000e+000	
2158.55	207.23	2.06E-03	1.00E-02	0	0.00000000e+000   0.0000e+000	
2160.953	207.11	2.04E-03	1.00E-02	0	0.00000000e+000   0.0000e+000	
2163.351	206.99	2.03E-03	1.00E-02	0	0.00000000e+000   0.0000e+000	
2165.757	206.87	2.03E-03	1.00E-02	0	0.00000000e+000   0.0000e+000	
2168.154	206.75	2.03E-03	1.00E-02	0	0.00000000e+000   0.0000e+000	
2170.557	206.64	2.03E-03	1.00E-02	0	0.00000000e+000   0.0000e+000	
2172.959	206.52	2.04E-03	1.00E-02	0	0.00000000e+000   0.0000e+000	
2175.355	206.4	2.03E-03	1.00E-02	0	0.00000000e+000   0.0000e+000	
2177.76	206.28	2.04E-03	1.00E-02	0	0.00000000e+000   0.0000e+000	
2180.158	206.16	2.03E-03	1.00E-02	0	0.00000000e+000   0.0000e+000	
2182.554	206.04	2.05E-03	1.00E-02	0	0.00000000e+000   0.0000e+000	
2184.956	205.93	2.09E-03	1.00E-02	0	0.00000000e+000   0.0000e+000	
2187.356	205.81	2.03E-03	1.00E-02	0	0.00000000e+000   0.0000e+000	
2189.761	205.69	2.03E-03	1.00E-02	0	0.00000000e+000   0.0000e+000	
2192.158	205.57	2.04E-03	1.00E-02	0	0.00000000e+000   0.0000e+000	
2194.558	205.45	2.05E-03	1.00E-02	0	0.00000000e+000   0.0000e+000	
2196.958	205.33	2.06E-03	1.00E-02	0	0.00000000e+000   0.0000e+000	
2199.358	205.21	2.05E-03	1.00E-02	0	0.00000000e+000   0.0000e+000	
2201.763	205.09	2.02E-03	1.00E-02	0	0.00000000e+000   0.0000e+000	
2204.16	204.98	2.02E-03	1.00E-02	0	0.00000000e+000   0.0000e+000	
2206.561	204.86	2.03E-03	1.00E-02	0	0.00000000e+000   0.0000e+000	
2208.963	204.74	2.05E-03	1.00E-02	0	0.00000000e+000   0.0000e+000	
2211.362	204.62	2.02E-03	1.00E-02	0	0.00000000e+000   0.0000e+000	
2213.765	204.5	2.02E-03	1.00E-02	0	0.00000000e+000   0.0000e+000	
2216.163	204.38	2.04E-03	1.00E-02	0	0.00000000e+000   0.0000e+000	
2218.567	204.26	2.05E-03	1.00E-02	0	0.00000000e+000   0.0000e+000	
2220.97	204.14	2.04E-03	1.00E-02	0	0.00000000e+000   0.0000e+000	
2223.364	204.02	1.98E-03	1.00E-02	0	0.00000000e+000   0.0000e+000	
2225.77	203.9	2.06E-03	1.00E-02	0	0.00000000e+000   0.0000e+000	
2228.169	203.78	2.02E-03	1.00E-02	0	0.00000000e+000   0.0000e+000	
2230.564	203.66	2.00E-03	1.00E-02	0	0.00000000e+000   0.0000e+000	
2232.964	203.54	2.00E-03	1.00E-02	0	0.00000000e+000   0.0000e+000	
2235.365	203.42	2.01E-03	1.00E-02	0	0.00000000e+000   0.0000e+000	
2237.769	203.3	2.05E-03	1.00E-02	0	0.00000000e+000   0.0000e+000	
2240.166	203.18	2.02E-03	1.00E-02	0	0.00000000e+000   0.0000e+000	
2242.567	203.06	2.01E-03	1.00E-02	0	0.00000000e+000   0.0000e+000	
2244.967	202.94	2.03E-03	1.00E-02	0	0.00000000e+000   0.0000e+000	
2247.367	202.82	2.05E-03	1.00E-02	0	0.00000000e+000   0.0000e+000	
2249.771	202.7	2.02E-03	1.00E-02	0	0.00000000e+000   0.0000e+000	
2252.168	202.59	2.03E-03	1.00E-02	0	0.00000000e+000   0.0000e+000	
2254.571	202.46	2.04E-03	1.00E-02	0	0.00000000e+000   0.0000e+000	
2256.97	202.35	2.04E-03	1.00E-02	0	0.00000000e+000   0.0000e+000	
2259.372	202.23	2.05E-03	1.00E-02	0	0.00000000e+000   0.0000e+000	
2261.775	202.11	2.03E-03	1.00E-02	0	0.00000000e+000   0.0000e+000	
2264.174	201.99	1.98E-03	1.00E-02	0	0.00000000e+000   0.0000e+000	
2266.576	201.87	2.02E-03	1.00E-02	0	0.00000000e+000   0.0000e+000	
2268.972	201.75	2.02E-03	1.00E-02	0	0.00000000e+000   0.0000e+000	
2271.375	201.63	2.02E-03	1.00E-02	0	0.00000000e+000   0.0000e+000	
2273.78	201.51	2.01E-03	1.00E-02	0	0.00000000e+000   0.0000e+000	
2276.173	201.39	2.00E-03	1.00E-02	0	0.00000000e+000   0.0000e+000	
2278.574	201.27	2.03E-03	1.00E-02	0	0.00000000e+000   0.0000e+000	
2280.974	201.15	2.00E-03	1.00E-02	0	0.00000000e+000   0.0000e+000	
2283.375	201.03	1.97E-03	1.00E-02	0	0.00000000e+000   0.0000e+000	
2285.778	200.91	2.00E-03	1.00E-02	0	0.00000000e+000   0.0000e+000	
2288.175	200.79	2.05E-03	1.00E-02	0	0.00000000e+000   0.0000e+000	
2290.576	200.67	2.00E-03	1.00E-02	0	0.00000000e+000   0.0000e+000	
2292.977	200.55	2.01E-03	1.00E-02	0	0.00000000e+000   0.0000e+000	
2295.377	200.43	2.00E-03	1.00E-02	0	0.00000000e+000   0.0000e+000	
2297.78	200.31	2.03E-03	1.00E-02	0	0.00000000e+000   0.0000e+000	
2300.177	200.2	2.01E-03	1.00E-02	0	0.00000000e+000   0.0000e+000	
2302.579	200.08	2.03E-03	1.00E-02	0	0.00000000e+000   0.0000e+000	
2304.981	199.96	2.00E-03	1.00E-02	0	0.00000000e+000   0.0000e+000	
2307.381	199.84	1.98E-03	1.00E-02	0	0.00000000e+000   0.0000e+000	
2309.784	199.72	2.00E-03	1.00E-02	0	0.00000000e+000   0.0000e+000	
2312.183	199.6	2.00E-03	1.00E-02	0	0.00000000e+000   0.0000e+000	
2314.585	199.47	2.04E-03	1.00E-02	0	0.00000000e+000   0.0000e+000	
2316.981	199.36	1.86E-04	1.00E-02	0	0.00000000e+000   0.0000e+000	
2319.382	199.24	1.97E-03	1.00E-02	0	0.00000000e+000   0.0000e+000	
2321.788	199.11	2.07E-03	1.00E-02	0	0.00000000e+000   0.0000e+000	
2324.188	198.99	1.79E-03	1.00E-02	0	0.00000000e+000   0.0000e+000	
2326.583	198.88	1.89E-03	1.00E-02	0	0.00000000e+000   0.0000e+000	
2328.983	198.76	1.98E-03	1.00E-02	0	0.00000000e+000   0.0000e+000	
2331.383	198.64	2.02E-03	1.00E-02	0	0.00000000e+000   0.0000e+000	
2333.787	198.52	1.99E-03	1.00E-02	0	0.00000000e+000   0.0000e+000	
2336.184	198.4	1.97E-03	1.00E-02	0	0.00000000e+000   0.0000e+000	
2338.584	198.28	2.00E-03	1.00E-02	0	0.00000000e+000   0.0000e+000	
2340.986	198.16	1.99E-03	1.00E-02	0	0.00000000e+000   0.0000e+000	
2343.386	198.04	1.97E-03	1.00E-02	0	0.00000000e+000   0.0000e+000	
2345.79	197.92	2.00E-03	1.00E-02	0	0.00000000e+000   0.0000e+000	
2348.187	197.8	1.99E-03	1.00E-02	0	0.00000000e+000   0.0000e+000	
2350.589	197.68	2.00E-03	1.00E-02	0	0.00000000e+000   0.0000e+000	
2352.988	197.56	2.02E-03	1.00E-02	0	0.00000000e+000   0.0000e+000	
2355.39	197.44	2.00E-03	1.00E-02	0	0.00000000e+000   0.0000e+000	
2357.793	197.32	1.99E-03	1.00E-02	0	0.00000000e+000   0.0000e+000	
2360.193	197.2	1.95E-03	1.00E-02	0	0.00000000e+000   0.0000e+000	
2362.596	197.09	1.94E-03	1.00E-02	0	0.00000000e+000   0.0000e+000	
2364.991	196.97	1.98E-03	1.00E-02	0	0.00000000e+000   0.0000e+000	
2367.392	196.85	1.99E-03	1.00E-02	0	0.00000000e+000   0.0000e+000	
2369.798	196.73	2.04E-03	1.00E-02	0	0.00000000e+000   0.0000e+000	
2372.19	196.61	1.99E-03	1.00E-02	0	0.00000000e+000   0.0000e+000	
2374.591	196.49	1.95E-03	1.00E-02	0	0.00000000e+000   0.0000e+000	
2376.992	196.37	1.96E-03	1.00E-02	0	0.00000000e+000   0.0000e+000	
2379.392	196.25	1.97E-03	1.00E-02	0	0.00000000e+000   0.0000e+000	
2381.796	196.13	2.02E-03	1.00E-02	0	0.00000000e+000   0.0000e+000	
2384.193	196.01	1.97E-03	1.00E-02	0	0.00000000e+000   0.0000e+000	
2386.594	195.89	1.98E-03	1.00E-02	0	0.00000000e+000   0.0000e+000	
2388.994	195.77	1.99E-03	1.00E-02	0	0.00000000e+000   0.0000e+000	
2391.394	195.65	1.95E-03	1.00E-02	0	0.00000000e+000   0.0000e+000	
2393.799	195.54	2.00E-03	1.00E-02	0	0.00000000e+000   0.0000e+000	
2396.197	195.42	1.99E-03	1.00E-02	0	0.00000000e+000   0.0000e+000	
2398.597	195.3	1.96E-03	1.00E-02	0	0.00000000e+000   0.0000e+000	
2400.998	195.18	1.98E-03	1.00E-02	0	0.00000000e+000   0.0000e+000	
2403.398	195.06	1.97E-03	1.00E-02	0	0.00000000e+000   0.0000e+000	
2405.804	194.94	1.94E-03	1.00E-02	0	0.00000000e+000   0.0000e+000	
2408.203	194.82	1.95E-03	1.00E-02	0	0.00000000e+000   0.0000e+000	
2410.605	194.71	1.97E-03	1.00E-02	0	0.00000000e+000   0.0000e+000	
2413	194.59	1.96E-03	1.00E-02	0	0.00000000e+000   0.0000e+000	
2415.403	194.47	1.99E-03	1.00E-02	0	0.00000000e+000   0.0000e+000	
2417.809	194.35	1.98E-03	1.00E-02	0	0.00000000e+000   0.0000e+000	
2420.2	194.23	1.96E-03	1.00E-02	0	0.00000000e+000   0.0000e+000	
2422.6	194.11	1.94E-03	1.00E-02	0	0.00000000e+000   0.0000e+000	
2425.001	193.99	1.97E-03	1.00E-02	0	0.00000000e+000   0.0000e+000	
2427.402	193.87	1.97E-03	1.00E-02	0	0.00000000e+000   0.0000e+000	
2429.805	193.76	1.96E-03	1.00E-02	0	0.00000000e+000   0.0000e+000	
2432.203	193.64	1.97E-03	1.00E-02	0	0.00000000e+000   0.0000e+000	
2434.602	193.52	1.96E-03	1.00E-02	0	0.00000000e+000   0.0000e+000	
2437.002	193.4	1.95E-03	1.00E-02	0	0.00000000e+000   0.0000e+000	
2439.404	193.28	1.96E-03	1.00E-02	0	0.00000000e+000   0.0000e+000	
2441.807	193.16	1.96E-03	1.00E-02	0	0.00000000e+000   0.0000e+000	
2444.205	193.04	1.96E-03	1.00E-02	0	0.00000000e+000   0.0000e+000	
2446.604	192.93	1.96E-03	1.00E-02	0	0.00000000e+000   0.0000e+000	
2449.007	192.81	1.91E-03	1.00E-02	0	0.00000000e+000   0.0000e+000	
2451.406	192.69	1.97E-03	1.00E-02	0	0.00000000e+000   0.0000e+000	
2453.812	192.57	1.95E-03	1.00E-02	0	0.00000000e+000   0.0000e+000	
2456.211	192.45	1.89E-03	1.00E-02	0	0.00000000e+000   0.0000e+000	
2458.613	192.34	1.93E-03	1.00E-02	0	0.00000000e+000   0.0000e+000	
2461.008	192.22	1.95E-03	1.00E-02	0	0.00000000e+000   0.0000e+000	
2463.412	192.1	1.93E-03	1.00E-02	0	0.00000000e+000   0.0000e+000	
2465.812	191.98	1.94E-03	1.00E-02	0	0.00000000e+000   0.0000e+000	
2468.209	191.86	1.91E-03	1.00E-02	0	0.00000000e+000   0.0000e+000	
2470.609	191.74	1.94E-03	1.00E-02	0	0.00000000e+000   0.0000e+000	
2473.009	191.63	2.02E-03	1.00E-02	0	0.00000000e+000   0.0000e+000	
2475.409	191.51	1.92E-03	1.00E-02	0	0.00000000e+000   0.0000e+000	
2477.813	191.39	1.97E-03	1.00E-02	0	0.00000000e+000   0.0000e+000	
2480.21	191.27	1.96E-03	1.00E-02	0	0.00000000e+000   0.0000e+000	
2482.611	191.15	1.94E-03	1.00E-02	0	0.00000000e+000   0.0000e+000	
2485.012	191.03	1.98E-03	1.00E-02	0	0.00000000e+000   0.0000e+000	
2487.411	190.91	1.93E-03	1.00E-02	0	0.00000000e+000   0.0000e+000	
2489.816	190.79	1.94E-03	1.00E-02	0	0.00000000e+000   0.0000e+000	
2492.215	190.68	1.98E-03	1.00E-02	0	0.00000000e+000   0.0000e+000	
2494.614	190.56	1.93E-03	1.00E-02	0	0.00000000e+000   0.0000e+000	
2497.013	190.44	1.91E-03	1.00E-02	0	0.00000000e+000   0.0000e+000	
2499.417	190.32	1.95E-03	1.00E-02	0	0.00000000e+000   0.0000e+000	
2501.823	190.2	1.98E-03	1.00E-02	0	0.00000000e+000   0.0000e+000	
2504.222	190.08	1.94E-03	1.00E-02	0	0.00000000e+000   0.0000e+000	
2506.616	189.96	1.96E-03	1.00E-02	0	0.00000000e+000   0.0000e+000	
2509.019	189.85	1.97E-03	1.00E-02	0	0.00000000e+000   0.0000e+000	
2511.423	189.73	1.99E-03	1.00E-02	0	0.00000000e+000   0.0000e+000	
2513.82	189.61	1.97E-03	1.00E-02	0	0.00000000e+000   0.0000e+000	
2516.217	189.49	1.92E-03	1.00E-02	0	0.00000000e+000   0.0000e+000	
2518.618	189.38	1.95E-03	1.00E-02	0	0.00000000e+000   0.0000e+000	
2521.018	189.26	1.96E-03	1.00E-02	0	0.00000000e+000   0.0000e+000	
2523.418	189.14	1.94E-03	1.00E-02	0	0.00000000e+000   0.0000e+000	
2525.822	189.02	1.92E-03	1.00E-02	0	0.00000000e+000   0.0000e+000	
2528.218	188.9	1.96E-03	1.00E-02	0	0.00000000e+000   0.0000e+000	
2530.619	188.78	1.93E-03	1.00E-02	0	0.00000000e+000   0.0000e+000	
2533.02	188.67	1.93E-03	1.00E-02	0	0.00000000e+000   0.0000e+000	
2535.42	188.55	1.93E-03	1.00E-02	0	0.00000000e+000   0.0000e+000	
2537.824	188.43	1.94E-03	1.00E-02	0	0.00000000e+000   0.0000e+000	
2540.223	188.32	1.94E-03	1.00E-02	0	0.00000000e+000   0.0000e+000	
2542.622	188.2	1.91E-03	1.00E-02	0	0.00000000e+000   0.0000e+000	
2545.024	188.08	1.91E-03	1.00E-02	0	0.00000000e+000   0.0000e+000	
2547.424	187.96	1.97E-03	1.00E-02	0	0.00000000e+000   0.0000e+000	
2549.83	187.84	1.91E-03	1.00E-02	0	0.00000000e+000   0.0000e+000	
2552.23	187.73	1.93E-03	1.00E-02	0	0.00000000e+000   0.0000e+000	
2554.626	187.61	1.93E-03	1.00E-02	0	0.00000000e+000   0.0000e+000	
2557.027	187.49	1.91E-03	1.00E-02	0	0.00000000e+000   0.0000e+000	
2559.429	187.38	1.94E-03	1.00E-02	0	0.00000000e+000   0.0000e+000	
2561.828	187.26	1.89E-03	1.00E-02	0	0.00000000e+000   0.0000e+000	
2564.226	187.14	1.88E-03	1.00E-02	0	0.00000000e+000   0.0000e+000	
2566.626	187.02	1.94E-03	1.00E-02	0	0.00000000e+000   0.0000e+000	
2569.027	186.9	1.91E-03	1.00E-02	0	0.00000000e+000   0.0000e+000	
2571.428	186.79	1.92E-03	1.00E-02	0	0.00000000e+000   0.0000e+000	
2573.83	186.67	1.95E-03	1.00E-02	0	0.00000000e+000   0.0000e+000	
2576.228	186.55	1.93E-03	1.00E-02	0	0.00000000e+000   0.0000e+000	
2578.629	186.43	1.89E-03	1.00E-02	0	0.00000000e+000   0.0000e+000	
2581.029	186.31	1.87E-03	1.00E-02	0	0.00000000e+000   0.0000e+000	
2583.429	186.2	1.81E-03	1.00E-02	0	0.00000000e+000   0.0000e+000	
2585.835	186.08	1.90E-03	1.00E-02	0	0.00000000e+000   0.0000e+000	
2588.231	185.96	1.94E-03	1.00E-02	0	0.00000000e+000   0.0000e+000	
2590.633	185.84	1.92E-03	1.00E-02	0	0.00000000e+000   0.0000e+000	
2593.032	185.73	1.90E-03	1.00E-02	0	0.00000000e+000   0.0000e+000	
2595.435	185.61	1.88E-03	1.00E-02	0	0.00000000e+000   0.0000e+000	
2597.84	185.49	1.96E-03	1.00E-02	0	0.00000000e+000   0.0000e+000	
2600.239	185.38	1.89E-03	1.00E-02	0	0.00000000e+000   0.0000e+000	
2602.634	185.26	1.93E-03	1.00E-02	0	0.00000000e+000   0.0000e+000	
2605.037	185.14	1.86E-03	1.00E-02	0	0.00000000e+000   0.0000e+000	
2607.44	185.02	1.77E-03	1.00E-02	0	0.00000000e+000   0.0000e+000	
2609.838	184.91	1.89E-03	1.00E-02	0	0.00000000e+000   0.0000e+000	
2612.235	184.79	1.85E-03	1.00E-02	0	0.00000000e+000   0.0000e+000	
2614.636	184.67	1.92E-03	1.00E-02	0	0.00000000e+000   0.0000e+000	
2617.036	184.55	1.99E-03	1.00E-02	0	0.00000000e+000   0.0000e+000	
2619.436	184.43	1.95E-03	1.00E-02	0	0.00000000e+000   0.0000e+000	
2621.84	184.32	1.90E-03	1.00E-02	0	0.00000000e+000   0.0000e+000	
2624.238	184.2	1.93E-03	1.00E-02	0	0.00000000e+000   0.0000e+000	
2626.638	184.08	1.92E-03	1.00E-02	0	0.00000000e+000   0.0000e+000	
2629.039	183.96	1.96E-03	1.00E-02	0	0.00000000e+000   0.0000e+000	
2631.439	183.84	1.84E-03	1.00E-02	0	0.00000000e+000   0.0000e+000	
2633.844	183.72	1.93E-03	1.00E-02	0	0.00000000e+000   0.0000e+000	
2636.239	183.6	1.91E-03	1.00E-02	0	0.00000000e+000   0.0000e+000	
2638.643	183.48	1.86E-03	1.00E-02	0	0.00000000e+000   0.0000e+000	
2641.042	183.37	1.92E-03	1.00E-02	0	0.00000000e+000   0.0000e+000	
2643.445	183.25	1.89E-03	1.00E-02	0	0.00000000e+000   0.0000e+000	
2645.851	183.13	1.94E-03	1.00E-02	0	0.00000000e+000   0.0000e+000	
2648.25	183.01	1.95E-03	1.00E-02	0	0.00000000e+000   0.0000e+000	
2650.644	182.9	1.92E-03	1.00E-02	0	0.00000000e+000   0.0000e+000	
2653.046	182.78	1.90E-03	1.00E-02	0	0.00000000e+000   0.0000e+000	
2655.444	182.66	1.88E-03	1.00E-02	0	0.00000000e+000   0.0000e+000	
2657.848	182.54	1.98E-03	1.00E-02	0	0.00000000e+000   0.0000e+000	
2660.245	182.42	1.90E-03	1.00E-02	0	0.00000000e+000   0.0000e+000	
2662.644	182.31	1.73E-03	1.00E-02	0	0.00000000e+000   0.0000e+000	
2665.045	182.19	1.94E-03	1.00E-02	0	0.00000000e+000   0.0000e+000	
2667.446	182.07	1.85E-03	1.00E-02	0	0.00000000e+000   0.0000e+000	
2669.85	181.95	1.85E-03	1.00E-02	0	0.00000000e+000   0.0000e+000	
2672.246	181.83	1.94E-03	1.00E-02	0	0.00000000e+000   0.0000e+000	
2674.648	181.72	1.91E-03	1.00E-02	0	0.00000000e+000   0.0000e+000	
2677.048	181.6	1.86E-03	1.00E-02	0	0.00000000e+000   0.0000e+000	
2679.448	181.48	1.86E-03	1.00E-02	0	0.00000000e+000   0.0000e+000	
2681.851	181.36	1.76E-03	1.00E-02	0	0.00000000e+000   0.0000e+000	
2684.25	181.24	1.95E-03	1.00E-02	0	0.00000000e+000   0.0000e+000	
2686.649	181.13	1.91E-03	1.00E-02	0	0.00000000e+000   0.0000e+000	
2689.052	181.01	1.85E-03	1.00E-02	0	0.00000000e+000   0.0000e+000	
2691.452	180.89	1.88E-03	1.00E-02	0	0.00000000e+000   0.0000e+000	
2693.858	180.77	1.90E-03	1.00E-02	0	0.00000000e+000   0.0000e+000	
2696.257	180.66	1.91E-03	1.00E-02	0	0.00000000e+000   0.0000e+000	
2698.653	180.54	1.82E-03	1.00E-02	0	0.00000000e+000   0.0000e+000	
2701.054	180.42	1.97E-03	1.00E-02	0	0.00000000e+000   0.0000e+000	
2703.456	180.3	1.88E-03	1.00E-02	0	0.00000000e+000   0.0000e+000	
2705.856	180.19	1.84E-03	1.00E-02	0	0.00000000e+000   0.0000e+000	
2708.254	180.07	1.87E-03	1.00E-02	0	0.00000000e+000   0.0000e+000	
2710.655	179.95	1.86E-03	1.00E-02	0	0.00000000e+000   0.0000e+000	
2713.054	179.83	1.88E-03	1.00E-02	0	0.00000000e+000   0.0000e+000	
2715.455	179.71	1.91E-03	1.00E-02	0	0.00000000e+000   0.0000e+000	
2717.859	179.59	1.75E-03	1.00E-02	0	0.00000000e+000   0.0000e+000	
2720.255	179.48	1.88E-03	1.00E-02	0	0.00000000e+000   0.0000e+000	
2722.656	179.36	1.89E-03	1.00E-02	0	0.00000000e+000   0.0000e+000	
2725.056	179.24	1.89E-03	1.00E-02	0	0.00000000e+000   0.0000e+000	
2727.458	179.12	1.87E-03	1.00E-02	0	0.00000000e+000   0.0000e+000	
2729.862	179	1.86E-03	1.00E-02	0	0.00000000e+000   0.0000e+000	
2732.258	178.88	1.84E-03	1.00E-02	0	0.00000000e+000   0.0000e+000	
2734.66	178.76	1.85E-03	1.00E-02	0	0.00000000e+000   0.0000e+000	
2737.059	178.64	1.82E-03	1.00E-02	0	0.00000000e+000   0.0000e+000	
2739.461	178.53	1.88E-03	1.00E-02	0	0.00000000e+000   0.0000e+000	
2741.867	178.41	1.89E-03	1.00E-02	0	0.00000000e+000   0.0000e+000	
2744.267	178.29	1.88E-03	1.00E-02	0	0.00000000e+000   0.0000e+000	
2746.662	178.17	1.86E-03	1.00E-02	0	0.00000000e+000   0.0000e+000	
2749.064	178.05	1.89E-03	1.00E-02	0	0.00000000e+000   0.0000e+000	
2751.469	177.93	1.85E-03	1.00E-02	0	0.00000000e+000   0.0000e+000	
2753.865	177.82	1.86E-03	1.00E-02	0	0.00000000e+000   0.0000e+000	
2756.262	177.7	1.89E-03	1.00E-02	0	0.00000000e+000   0.0000e+000	
2758.662	177.63	1.89E-03	1.00E-02	0	0.00000000e+000   0.0000e+000	
2761.064	177.51	1.91E-03	1.00E-02	0	0.00000000e+000   0.0000e+000	
2763.464	177.39	1.87E-03	1.00E-02	0	0.00000000e+000   0.0000e+000	
2765.868	177.28	1.87E-03	1.00E-02	0	0.00000000e+000   0.0000e+000	
2768.265	177.16	1.85E-03	1.00E-02	0	0.00000000e+000   0.0000e+000	
2770.665	177.04	1.86E-03	1.00E-02	0	0.00000000e+000   0.0000e+000	
2773.065	176.92	1.83E-03	1.00E-02	0	0.00000000e+000   0.0000e+000	
2775.468	176.8	1.75E-03	1.00E-02	0	0.00000000e+000   0.0000e+000	
2777.871	176.68	1.88E-03	1.00E-02	0	0.00000000e+000   0.0000e+000	
2780.27	176.56	1.87E-03	1.00E-02	0	0.00000000e+000   0.0000e+000	
2782.669	176.45	1.91E-03	1.00E-02	0	0.00000000e+000   0.0000e+000	
2785.072	176.33	1.87E-03	1.00E-02	0	0.00000000e+000   0.0000e+000	
2787.474	176.21	1.87E-03	1.00E-02	0	0.00000000e+000   0.0000e+000	
2789.873	176.1	1.86E-03	1.00E-02	0	0.00000000e+000   0.0000e+000	
2792.271	175.98	1.88E-03	1.00E-02	0	0.00000000e+000   0.0000e+000	
2794.673	175.86	1.81E-03	1.00E-02	0	0.00000000e+000   0.0000e+000	
2797.07	175.74	1.83E-03	1.00E-02	0	0.00000000e+000   0.0000e+000	
2799.472	175.62	1.82E-03	1.00E-02	0	0.00000000e+000   0.0000e+000	
2801.875	175.51	1.86E-03	1.00E-02	0	0.00000000e+000   0.0000e+000	
2804.272	175.39	1.85E-03	1.00E-02	0	0.00000000e+000   0.0000e+000	
2806.671	175.27	1.86E-03	1.00E-02	0	0.00000000e+000   0.0000e+000	
2809.072	175.15	1.85E-03	1.00E-02	0	0.00000000e+000   0.0000e+000	
2811.472	175.03	1.87E-03	1.00E-02	0	0.00000000e+000   0.0000e+000	
2813.878	174.91	1.87E-03	1.00E-02	0	0.00000000e+000   0.0000e+000	
2816.275	174.8	1.84E-03	1.00E-02	0	0.00000000e+000   0.0000e+000	
2818.674	174.68	1.86E-03	1.00E-02	0	0.00000000e+000   0.0000e+000	
2821.076	174.56	1.86E-03	1.00E-02	0	0.00000000e+000   0.0000e+000	
2823.475	174.44	1.86E-03	1.00E-02	0	0.00000000e+000   0.0000e+000	
2825.88	174.32	1.88E-03	1.00E-02	0	0.00000000e+000   0.0000e+000	
2828.276	174.2	1.87E-03	1.00E-02	0	0.00000000e+000   0.0000e+000	
2830.68	174.08	1.88E-03	1.00E-02	0	0.00000000e+000   0.0000e+000	
2833.082	173.97	1.83E-03	1.00E-02	0	0.00000000e+000   0.0000e+000	
2835.484	173.85	1.84E-03	1.00E-02	0	0.00000000e+000   0.0000e+000	
2837.882	173.73	1.85E-03	1.00E-02	0	0.00000000e+000   0.0000e+000	
2840.282	173.61	1.86E-03	1.00E-02	0	0.00000000e+000   0.0000e+000	
2842.679	173.5	1.87E-03	1.00E-02	0	0.00000000e+000   0.0000e+000	
2845.078	173.38	1.79E-03	1.00E-02	0	0.00000000e+000   0.0000e+000	
2847.478	173.26	1.86E-03	1.00E-02	0	0.00000000e+000   0.0000e+000	
2849.883	173.14	1.66E-03	1.00E-02	0	0.00000000e+000   0.0000e+000	
2852.28	173.02	1.85E-03	1.00E-02	0	0.00000000e+000   0.0000e+000	
2854.681	172.9	1.86E-03	1.00E-02	0	0.00000000e+000   0.0000e+000	
2857.081	172.78	1.85E-03	1.00E-02	0	0.00000000e+000   0.0000e+000	
2859.482	172.66	1.84E-03	1.00E-02	0	0.00000000e+000   0.0000e+000	
2861.885	172.55	1.82E-03	1.00E-02	0	0.00000000e+000   0.0000e+000	
2864.282	172.43	1.86E-03	1.00E-02	0	0.00000000e+000   0.0000e+000	
2866.684	172.31	1.88E-03	1.00E-02	0	0.00000000e+000   0.0000e+000	
2869.084	172.19	1.78E-03	1.00E-02	0	0.00000000e+000   0.0000e+000	
2871.485	172.07	1.84E-03	1.00E-02	0	0.00000000e+000   0.0000e+000	
2873.891	171.95	1.83E-03	1.00E-02	0	0.00000000e+000   0.0000e+000	
2876.287	171.83	1.87E-03	1.00E-02	0	0.00000000e+000   0.0000e+000	
2878.689	171.71	1.82E-03	1.00E-02	0	0.00000000e+000   0.0000e+000	
2881.092	171.59	1.85E-03	1.00E-02	0	0.00000000e+000   0.0000e+000	
2883.489	171.48	1.76E-03	1.00E-02	0	0.00000000e+000   0.0000e+000	
2885.893	171.36	1.84E-03	1.00E-02	0	0.00000000e+000   0.0000e+000	
2888.29	171.24	1.86E-03	1.00E-02	0	0.00000000e+000   0.0000e+000	
2890.688	171.12	1.87E-03	1.00E-02	0	0.00000000e+000   0.0000e+000	
2893.088	171	1.75E-03	1.00E-02	0	0.00000000e+000   0.0000e+000	
2895.488	170.88	1.80E-03	1.00E-02	0	0.00000000e+000   0.0000e+000	
2897.892	170.76	1.83E-03	1.00E-02	0	0.00000000e+000   0.0000e+000	
2900.291	170.64	1.83E-03	1.00E-02	0	0.00000000e+000   0.0000e+000	
2902.691	170.52	1.82E-03	1.00E-02	0	0.00000000e+000   0.0000e+000	
2905.09	170.4	1.81E-03	1.00E-02	0	0.00000000e+000   0.0000e+000	
2907.491	170.28	1.84E-03	1.00E-02	0	0.00000000e+000   0.0000e+000	
2909.894	170.16	1.83E-03	1.00E-02	0	0.00000000e+000   0.0000e+000	
2912.291	170.04	1.77E-03	1.00E-02	0	0.00000000e+000   0.0000e+000	
2914.692	169.92	1.86E-03	1.00E-02	0	0.00000000e+000   0.0000e+000	
2917.093	169.8	1.82E-03	1.00E-02	0	0.00000000e+000   0.0000e+000	
2919.496	169.68	1.82E-03	1.00E-02	0	0.00000000e+000   0.0000e+000	
2921.897	169.56	1.80E-03	1.00E-02	0	0.00000000e+000   0.0000e+000	
2924.294	169.44	1.79E-03	1.00E-02	0	0.00000000e+000   0.0000e+000	
2926.697	169.32	1.87E-03	1.00E-02	0	0.00000000e+000   0.0000e+000	
2929.099	169.19	1.81E-03	1.00E-02	0	0.00000000e+000   0.0000e+000	
2931.501	169.08	1.85E-03	1.00E-02	0	0.00000000e+000   0.0000e+000	
2933.9	168.96	1.85E-03	1.00E-02	0	0.00000000e+000   0.0000e+000	
2936.299	168.84	1.86E-03	1.00E-02	0	0.00000000e+000   0.0000e+000	
2938.701	168.71	1.83E-03	1.00E-02	0	0.00000000e+000   0.0000e+000	
2941.097	168.59	1.80E-03	1.00E-02	0	0.00000000e+000   0.0000e+000	
2943.497	168.47	1.84E-03	1.00E-02	0	0.00000000e+000   0.0000e+000	
2945.901	168.35	1.82E-03	1.00E-02	0	0.00000000e+000   0.0000e+000	
2948.298	168.23	1.79E-03	1.00E-02	0	0.00000000e+000   0.0000e+000	
2950.697	168.11	1.83E-03	1.00E-02	0	0.00000000e+000   0.0000e+000	
2953.1	167.99	1.81E-03	1.00E-02	0	0.00000000e+000   0.0000e+000	
2955.501	167.87	1.82E-03	1.00E-02	0	0.00000000e+000   0.0000e+000	
2957.904	167.75	1.81E-03	1.00E-02	0	0.00000000e+000   0.0000e+000	
2960.301	167.63	1.79E-03	1.00E-02	0	0.00000000e+000   0.0000e+000	
2962.701	167.51	1.77E-03	1.00E-02	0	0.00000000e+000   0.0000e+000	
2965.101	167.39	1.77E-03	1.00E-02	0	0.00000000e+000   0.0000e+000	
2967.504	167.27	1.81E-03	1.00E-02	0	0.00000000e+000   0.0000e+000	
2969.906	167.15	1.79E-03	1.00E-02	0	0.00000000e+000   0.0000e+000	
2972.305	167.03	1.77E-03	1.00E-02	0	0.00000000e+000   0.0000e+000	
2974.705	166.92	1.80E-03	1.00E-02	0	0.00000000e+000   0.0000e+000	
2977.108	166.79	1.75E-03	1.00E-02	0	0.00000000e+000   0.0000e+000	
2979.511	166.68	1.73E-03	1.00E-02	0	0.00000000e+000   0.0000e+000	
2981.909	166.56	1.70E-03	1.00E-02	0	0.00000000e+000   0.0000e+000	
2984.307	166.44	1.78E-03	1.00E-02	0	0.00000000e+000   0.0000e+000	
2986.709	166.32	1.76E-03	1.00E-02	0	0.00000000e+000   0.0000e+000	
2989.107	166.2	1.79E-03	1.00E-02	0	0.00000000e+000   0.0000e+000	
2991.507	166.08	1.84E-03	1.00E-02	0	0.00000000e+000   0.0000e+000	
2993.91	165.96	1.82E-03	1.00E-02	0	0.00000000e+000   0.0000e+000	
2996.308	165.84	1.81E-03	1.00E-02	0	0.00000000e+000   0.0000e+000	
2998.707	165.73	1.80E-03	1.00E-02	0	0.00000000e+000   0.0000e+000	
3001.108	165.61	1.85E-03	1.00E-02	0	0.00000000e+000   0.0000e+000	
3003.508	165.49	1.86E-03	1.00E-02	0	0.00000000e+000   0.0000e+000	
3005.913	165.37	1.77E-03	1.00E-02	0	0.00000000e+000   0.0000e+000	
3008.31	165.25	1.80E-03	1.00E-02	0	0.00000000e+000   0.0000e+000	
3010.71	165.13	1.80E-03	1.00E-02	0	0.00000000e+000   0.0000e+000	
3013.111	165.02	1.80E-03	1.00E-02	0	0.00000000e+000   0.0000e+000	
3015.511	164.9	1.75E-03	1.00E-02	0	0.00000000e+000   0.0000e+000	
3017.915	164.78	1.81E-03	1.00E-02	0	0.00000000e+000   0.0000e+000	
3020.312	164.66	1.73E-03	1.00E-02	0	0.00000000e+000   0.0000e+000	
3022.714	164.54	1.77E-03	1.00E-02	0	0.00000000e+000   0.0000e+000	
3025.114	164.42	1.80E-03	1.00E-02	0	0.00000000e+000   0.0000e+000	
3027.516	164.3	1.82E-03	1.00E-02	0	0.00000000e+000   0.0000e+000	
3029.922	164.18	1.78E-03	1.00E-02	0	0.00000000e+000   0.0000e+000	
3032.321	164.07	1.76E-03	1.00E-02	0	0.00000000e+000   0.0000e+000	
3034.715	163.95	1.79E-03	1.00E-02	0	0.00000000e+000   0.0000e+000	
3037.118	163.83	1.86E-03	1.00E-02	0	0.00000000e+000   0.0000e+000	
3039.52	163.71	1.76E-03	1.00E-02	0	0.00000000e+000   0.0000e+000	
3041.92	163.59	1.78E-03	1.00E-02	0	0.00000000e+000   0.0000e+000	
3044.317	163.47	1.75E-03	1.00E-02	0	0.00000000e+000   0.0000e+000	
3046.717	163.35	1.79E-03	1.00E-02	0	0.00000000e+000   0.0000e+000	
3049.117	163.23	1.75E-03	1.00E-02	0	0.00000000e+000   0.0000e+000	
3051.518	163.11	1.76E-03	1.00E-02	0	0.00000000e+000   0.0000e+000	
3053.922	163	1.76E-03	1.00E-02	0	0.00000000e+000   0.0000e+000	
3056.318	162.88	1.79E-03	1.00E-02	0	0.00000000e+000   0.0000e+000	
3058.72	162.76	1.78E-03	1.00E-02	0	0.00000000e+000   0.0000e+000	
3061.12	162.64	1.70E-03	1.00E-02	0	0.00000000e+000   0.0000e+000	
3063.521	162.52	1.73E-03	1.00E-02	0	0.00000000e+000   0.0000e+000	
3065.926	162.4	1.77E-03	1.00E-02	0	0.00000000e+000   0.0000e+000	
3068.321	162.29	1.79E-03	1.00E-02	0	0.00000000e+000   0.0000e+000	
3070.724	162.16	1.77E-03	1.00E-02	0	0.00000000e+000   0.0000e+000	
3073.123	162.05	1.77E-03	1.00E-02	0	0.00000000e+000   0.0000e+000	
3075.527	161.93	1.80E-03	1.00E-02	0	0.00000000e+000   0.0000e+000	
3077.933	161.81	1.79E-03	1.00E-02	0	0.00000000e+000   0.0000e+000	
3080.325	161.69	1.77E-03	1.00E-02	0	0.00000000e+000   0.0000e+000	
3082.726	161.57	1.72E-03	1.00E-02	0	0.00000000e+000   0.0000e+000	
3085.128	161.45	1.71E-03	1.00E-02	0	0.00000000e+000   0.0000e+000	
3087.524	161.33	1.77E-03	1.00E-02	0	0.00000000e+000   0.0000e+000	
3089.928	161.22	1.77E-03	1.00E-02	0	0.00000000e+000   0.0000e+000	
3092.326	161.1	1.77E-03	1.00E-02	0	0.00000000e+000   0.0000e+000	
3094.727	160.98	1.73E-03	1.00E-02	0	0.00000000e+000   0.0000e+000	
3097.127	160.86	1.90E-03	1.00E-02	0	0.00000000e+000   0.0000e+000	
3099.527	160.74	1.78E-03	1.00E-02	0	0.00000000e+000   0.0000e+000	
3101.931	160.62	1.73E-03	1.00E-02	0	0.00000000e+000   0.0000e+000	
3104.328	160.5	1.77E-03	1.00E-02	0	0.00000000e+000   0.0000e+000	
3106.728	160.39	1.85E-03	1.00E-02	0	0.00000000e+000   0.0000e+000	
3109.129	160.27	1.72E-03	1.00E-02	0	0.00000000e+000   0.0000e+000	
3111.53	160.15	1.70E-03	1.00E-02	0	0.00000000e+000   0.0000e+000	
3113.933	160.03	1.73E-03	1.00E-02	0	0.00000000e+000   0.0000e+000	
3116.33	159.91	1.75E-03	1.00E-02	0	0.00000000e+000   0.0000e+000	
3118.732	159.8	1.75E-03	1.00E-02	0	0.00000000e+000   0.0000e+000	
3121.131	159.68	1.75E-03	1.00E-02	0	0.00000000e+000   0.0000e+000	
3123.534	159.56	1.74E-03	1.00E-02	0	0.00000000e+000   0.0000e+000	
3125.936	159.45	1.71E-03	1.00E-02	0	0.00000000e+000   0.0000e+000	
3128.336	159.33	1.74E-03	1.00E-02	0	0.00000000e+000   0.0000e+000	
3130.739	159.21	1.72E-03	1.00E-02	0	0.00000000e+000   0.0000e+000	
3133.135	159.1	1.68E-03	1.00E-02	0	0.00000000e+000   0.0000e+000	
3135.536	158.98	1.91E-03	1.00E-02	0	0.00000000e+000   0.0000e+000	
3137.942	158.86	1.76E-03	1.00E-02	0	0.00000000e+000   0.0000e+000	
3140.334	158.74	1.75E-03	1.00E-02	0	0.00000000e+000   0.0000e+000	
3142.735	158.63	1.71E-03	1.00E-02	0	0.00000000e+000   0.0000e+000	
3145.136	158.51	1.76E-03	1.00E-02	0	0.00000000e+000   0.0000e+000	
3147.536	158.4	1.71E-03	1.00E-02	0	0.00000000e+000   0.0000e+000	
3149.94	158.28	1.75E-03	1.00E-02	0	0.00000000e+000   0.0000e+000	
3152.336	158.16	1.77E-03	1.00E-02	0	0.00000000e+000   0.0000e+000	
3154.737	158.04	1.75E-03	1.00E-02	0	0.00000000e+000   0.0000e+000	
3157.137	157.93	1.83E-03	1.00E-02	0	0.00000000e+000   0.0000e+000	
3159.538	157.81	1.72E-03	1.00E-02	0	0.00000000e+000   0.0000e+000	
3161.942	157.69	1.70E-03	1.00E-02	0	0.00000000e+000   0.0000e+000	
3164.339	157.58	1.78E-03	1.00E-02	0	0.00000000e+000   0.0000e+000	
3166.74	157.46	1.72E-03	1.00E-02	0	0.00000000e+000   0.0000e+000	
3169.142	157.34	1.81E-03	1.00E-02	0	0.00000000e+000   0.0000e+000	
3171.541	157.23	1.70E-03	1.00E-02	0	0.00000000e+000   0.0000e+000	
3173.944	157.11	1.73E-03	1.00E-02	0	0.00000000e+000   0.0000e+000	
3176.343	157	1.70E-03	1.00E-02	0	0.00000000e+000   0.0000e+000	
3178.745	156.88	1.70E-03	1.00E-02	0	0.00000000e+000   0.0000e+000	
3181.149	156.76	1.73E-03	1.00E-02	0	0.00000000e+000   0.0000e+000	
3183.545	156.65	1.65E-03	1.00E-02	0	0.00000000e+000   0.0000e+000	
3185.949	156.53	1.74E-03	1.00E-02	0	0.00000000e+000   0.0000e+000	
3188.348	156.42	1.69E-03	1.00E-02	0	0.00000000e+000   0.0000e+000	
3190.744	156.3	1.78E-03	1.00E-02	0	0.00000000e+000   0.0000e+000	
3193.144	156.19	1.63E-03	1.00E-02	0	0.00000000e+000   0.0000e+000	
3195.545	156.07	1.73E-03	1.00E-02	0	0.00000000e+000   0.0000e+000	
3197.949	155.95	1.74E-03	1.00E-02	0	0.00000000e+000   0.0000e+000	
3200.346	155.84	1.76E-03	1.00E-02	0	0.00000000e+000   0.0000e+000	
3202.746	155.72	1.74E-03	1.00E-02	0	0.00000000e+000   0.0000e+000	
3205.147	155.61	1.75E-03	1.00E-02	0	0.00000000e+000   0.0000e+000	
3207.548	155.49	1.73E-03	1.00E-02	0	0.00000000e+000   0.0000e+000	
3209.951	155.37	1.76E-03	1.00E-02	0	0.00000000e+000   0.0000e+000	
3212.347	155.26	1.75E-03	1.00E-02	0	0.00000000e+000   0.0000e+000	
3214.748	155.14	1.72E-03	1.00E-02	0	0.00000000e+000   0.0000e+000	
3217.149	155.02	1.70E-03	1.00E-02	0	0.00000000e+000   0.0000e+000	
3219.551	154.91	1.74E-03	1.00E-02	0	0.00000000e+000   0.0000e+000	
3221.954	154.79	1.69E-03	1.00E-02	0	0.00000000e+000   0.0000e+000	
3224.352	154.67	1.77E-03	1.00E-02	0	0.00000000e+000   0.0000e+000	
3226.752	154.55	1.70E-03	1.00E-02	0	0.00000000e+000   0.0000e+000	
3229.154	154.44	1.74E-03	1.00E-02	0	0.00000000e+000   0.0000e+000	
3231.557	154.32	1.75E-03	1.00E-02	0	0.00000000e+000   0.0000e+000	
3233.957	154.2	1.72E-03	1.00E-02	0	0.00000000e+000   0.0000e+000	
3236.355	154.08	1.67E-03	1.00E-02	0	0.00000000e+000   0.0000e+000	
3238.757	153.97	1.71E-03	1.00E-02	0	0.00000000e+000   0.0000e+000	
3241.153	153.85	1.77E-03	1.00E-02	0	0.00000000e+000   0.0000e+000	
3243.553	153.73	1.74E-03	1.00E-02	0	0.00000000e+000   0.0000e+000	
3245.957	153.61	1.67E-03	1.00E-02	0	0.00000000e+000   0.0000e+000	
3248.355	153.5	1.80E-03	1.00E-02	0	0.00000000e+000   0.0000e+000	
3250.755	153.38	1.69E-03	1.00E-02	0	0.00000000e+000   0.0000e+000	
3253.156	153.26	1.73E-03	1.00E-02	0	0.00000000e+000   0.0000e+000	
3255.556	153.14	1.68E-03	1.00E-02	0	0.00000000e+000   0.0000e+000	
3257.96	153.02	1.72E-03	1.00E-02	0	0.00000000e+000   0.0000e+000	
3260.357	152.91	1.73E-03	1.00E-02	0	0.00000000e+000   0.0000e+000	
3262.757	152.79	1.68E-03	1.00E-02	0	0.00000000e+000   0.0000e+000	
3265.158	152.67	1.76E-03	1.00E-02	0	0.00000000e+000   0.0000e+000	
3267.559	152.56	1.72E-03	1.00E-02	0	0.00000000e+000   0.0000e+000	
3269.962	152.44	1.72E-03	1.00E-02	0	0.00000000e+000   0.0000e+000	
3272.361	152.32	1.69E-03	1.00E-02	0	0.00000000e+000   0.0000e+000	
3274.76	152.2	1.69E-03	1.00E-02	0	0.00000000e+000   0.0000e+000	
3277.162	152.09	1.71E-03	1.00E-02	0	0.00000000e+000   0.0000e+000	
3279.562	151.97	1.68E-03	1.00E-02	0	0.00000000e+000   0.0000e+000	
3281.967	151.85	1.78E-03	1.00E-02	0	0.00000000e+000   0.0000e+000	
3284.367	151.73	1.72E-03	1.00E-02	0	0.00000000e+000   0.0000e+000	
3286.764	151.62	1.68E-03	1.00E-02	0	0.00000000e+000   0.0000e+000	
3289.165	151.5	1.73E-03	1.00E-02	0	0.00000000e+000   0.0000e+000	
3291.567	151.38	1.65E-03	1.00E-02	0	0.00000000e+000   0.0000e+000	
3293.967	151.27	1.65E-03	1.00E-02	0	0.00000000e+000   0.0000e+000	
3296.364	151.15	1.65E-03	1.00E-02	0	0.00000000e+000   0.0000e+000	
3298.764	151.03	1.69E-03	1.00E-02	0	0.00000000e+000   0.0000e+000	
3301.164	150.91	1.71E-03	1.00E-02	0	0.00000000e+000   0.0000e+000	
3303.566	150.8	1.77E-03	1.00E-02	0	0.00000000e+000   0.0000e+000	
3305.969	150.68	1.74E-03	1.00E-02	0	0.00000000e+000   0.0000e+000	
3308.365	150.56	1.71E-03	1.00E-02	0	0.00000000e+000   0.0000e+000	
3310.766	150.45	1.70E-03	1.00E-02	0	0.00000000e+000   0.0000e+000	
3313.166	150.33	1.69E-03	1.00E-02	0	0.00000000e+000   0.0000e+000	
3315.567	150.21	1.77E-03	1.00E-02	0	0.00000000e+000   0.0000e+000	
3317.972	150.09	1.70E-03	1.00E-02	0	0.00000000e+000   0.0000e+000	
3320.368	149.98	1.71E-03	1.00E-02	0	0.00000000e+000   0.0000e+000	
3322.771	149.86	1.72E-03	1.00E-02	0	0.00000000e+000   0.0000e+000	
3325.171	149.74	1.72E-03	1.00E-02	0	0.00000000e+000   0.0000e+000	
3327.573	149.63	1.67E-03	1.00E-02	0	0.00000000e+000   0.0000e+000	
3329.979	149.51	1.73E-03	1.00E-02	0	0.00000000e+000   0.0000e+000	
3332.378	149.39	1.68E-03	1.00E-02	0	0.00000000e+000   0.0000e+000	
3334.772	149.28	1.74E-03	1.00E-02	0	0.00000000e+000   0.0000e+000	
3337.175	149.16	1.69E-03	1.00E-02	0	0.00000000e+000   0.0000e+000	
3339.572	149.04	1.69E-03	1.00E-02	0	0.00000000e+000   0.0000e+000	
3341.976	148.93	1.73E-03	1.00E-02	0	0.00000000e+000   0.0000e+000	
3344.373	148.81	1.69E-03	1.00E-02	0	0.00000000e+000   0.0000e+000	
3346.772	148.69	1.73E-03	1.00E-02	0	0.00000000e+000   0.0000e+000	
3349.173	148.58	1.68E-03	1.00E-02	0	0.00000000e+000   0.0000e+000	
3351.573	148.46	1.71E-03	1.00E-02	0	0.00000000e+000   0.0000e+000	
3353.977	148.34	1.72E-03	1.00E-02	0	0.00000000e+000   0.0000e+000	
3356.375	148.23	1.71E-03	1.00E-02	0	0.00000000e+000   0.0000e+000	
3358.776	148.11	1.72E-03	1.00E-02	0	0.00000000e+000   0.0000e+000	
3361.176	147.99	1.76E-03	1.00E-02	0	0.00000000e+000   0.0000e+000	
3363.576	147.88	1.72E-03	1.00E-02	0	0.00000000e+000   0.0000e+000	
3365.982	147.76	1.72E-03	1.00E-02	0	0.00000000e+000   0.0000e+000	
3368.378	147.64	1.71E-03	1.00E-02	0	0.00000000e+000   0.0000e+000	
3370.777	147.53	1.71E-03	1.00E-02	0	0.00000000e+000   0.0000e+000	
3373.18	147.41	1.72E-03	1.00E-02	0	0.00000000e+000   0.0000e+000	
3375.582	147.29	1.68E-03	1.00E-02	0	0.00000000e+000   0.0000e+000	
3377.988	147.18	1.69E-03	1.00E-02	0	0.00000000e+000   0.0000e+000	
3380.387	147.06	1.72E-03	1.00E-02	0	0.00000000e+000   0.0000e+000	
3382.781	146.95	1.69E-03	1.00E-02	0	0.00000000e+000   0.0000e+000	
3385.184	146.83	1.65E-03	1.00E-02	0	0.00000000e+000   0.0000e+000	
3387.58	146.71	1.69E-03	1.00E-02	0	0.00000000e+000   0.0000e+000	
3389.985	146.6	1.66E-03	1.00E-02	0	0.00000000e+000   0.0000e+000	
3392.382	146.48	1.71E-03	1.00E-02	0	0.00000000e+000   0.0000e+000	
3394.782	146.36	1.67E-03	1.00E-02	0	0.00000000e+000   0.0000e+000	
3397.182	146.25	1.67E-03	1.00E-02	0	0.00000000e+000   0.0000e+000	
3399.583	146.13	1.71E-03	1.00E-02	0	0.00000000e+000   0.0000e+000	
3401.987	146.01	1.67E-03	1.00E-02	0	0.00000000e+000   0.0000e+000	
3404.383	145.9	1.71E-03	1.00E-02	0	0.00000000e+000   0.0000e+000	
3406.784	145.78	1.63E-03	1.00E-02	0	0.00000000e+000   0.0000e+000	
3409.185	145.66	1.67E-03	1.00E-02	0	0.00000000e+000   0.0000e+000	
3411.586	145.55	1.71E-03	1.00E-02	0	0.00000000e+000   0.0000e+000	
3413.989	145.43	1.68E-03	1.00E-02	0	0.00000000e+000   0.0000e+000	
3416.387	145.31	1.67E-03	1.00E-02	0	0.00000000e+000   0.0000e+000	
3418.789	145.2	1.70E-03	1.00E-02	0	0.00000000e+000   0.0000e+000	
3421.189	145.08	1.66E-03	1.00E-02	0	0.00000000e+000   0.0000e+000	
3423.591	144.97	1.68E-03	1.00E-02	0	0.00000000e+000   0.0000e+000	
3425.998	144.85	1.67E-03	1.00E-02	0	0.00000000e+000   0.0000e+000	
3428.39	144.73	1.68E-03	1.00E-02	0	0.00000000e+000   0.0000e+000	
3430.791	144.61	1.70E-03	1.00E-02	0	0.00000000e+000   0.0000e+000	
3433.196	144.49	1.70E-03	1.00E-02	0	0.00000000e+000   0.0000e+000	
3435.589	144.37	1.65E-03	1.00E-02	0	0.00000000e+000   0.0000e+000	
3437.993	144.25	1.65E-03	1.00E-02	0	0.00000000e+000   0.0000e+000	
3440.391	144.14	1.76E-03	1.00E-02	0	0.00000000e+000   0.0000e+000	
3442.791	144.02	1.69E-03	1.00E-02	0	0.00000000e+000   0.0000e+000	
3445.192	143.9	1.65E-03	1.00E-02	0	0.00000000e+000   0.0000e+000	
3447.592	143.78	1.71E-03	1.00E-02	0	0.00000000e+000   0.0000e+000	
3449.996	143.66	1.68E-03	1.00E-02	0	0.00000000e+000   0.0000e+000	
3452.392	143.55	1.67E-03	1.00E-02	0	0.00000000e+000   0.0000e+000	
3454.793	143.43	1.68E-03	1.00E-02	0	0.00000000e+000   0.0000e+000	
3457.195	143.31	1.69E-03	1.00E-02	0	0.00000000e+000   0.0000e+000	
3459.593	143.19	1.56E-03	1.00E-02	0	0.00000000e+000   0.0000e+000	
3462	143.07	1.69E-03	1.00E-02	0	0.00000000e+000   0.0000e+000	
3464.396	142.96	1.70E-03	1.00E-02	0	0.00000000e+000   0.0000e+000	
3466.799	142.84	1.66E-03	1.00E-02	0	0.00000000e+000   0.0000e+000	
3469.201	142.72	1.61E-03	1.00E-02	0	0.00000000e+000   0.0000e+000	
3471.604	142.6	1.65E-03	1.00E-02	0	0.00000000e+000   0.0000e+000	
3474.002	142.49	1.68E-03	1.00E-02	0	0.00000000e+000   0.0000e+000	
3476.401	142.37	1.59E-03	1.00E-02	0	0.00000000e+000   0.0000e+000	
3478.806	142.25	1.67E-03	1.00E-02	0	0.00000000e+000   0.0000e+000	
3481.199	142.13	1.66E-03	1.00E-02	0	0.00000000e+000   0.0000e+000	
3483.599	142.02	1.68E-03	1.00E-02	0	0.00000000e+000   0.0000e+000	
3486.002	141.9	1.68E-03	1.00E-02	0	0.00000000e+000   0.0000e+000	
3488.399	141.78	1.65E-03	1.00E-02	0	0.00000000e+000   0.0000e+000	
3490.8	141.66	1.61E-03	1.00E-02	0	0.00000000e+000   0.0000e+000	
3493.2	141.54	1.64E-03	1.00E-02	0	0.00000000e+000   0.0000e+000	
3495.6	141.43	1.67E-03	1.00E-02	0	0.00000000e+000   0.0000e+000	
3498.005	141.31	1.66E-03	1.00E-02	0	0.00000000e+000   0.0000e+000	
3500.401	141.19	1.66E-03	1.00E-02	0	0.00000000e+000   0.0000e+000	
3502.802	141.07	1.73E-03	1.00E-02	0	0.00000000e+000   0.0000e+000	
3505.203	140.96	1.69E-03	1.00E-02	0	0.00000000e+000   0.0000e+000	
3507.604	140.84	1.65E-03	1.00E-02	0	0.00000000e+000   0.0000e+000	
3510.008	140.72	1.66E-03	1.00E-02	0	0.00000000e+000   0.0000e+000	
3512.406	140.6	1.66E-03	1.00E-02	0	0.00000000e+000   0.0000e+000	
3514.807	140.49	1.64E-03	1.00E-02	0	0.00000000e+000   0.0000e+000	
3517.207	140.37	1.65E-03	1.00E-02	0	0.00000000e+000   0.0000e+000	
3519.609	140.25	1.63E-03	1.00E-02	0	0.00000000e+000   0.0000e+000	
3522.015	140.13	1.64E-03	1.00E-02	0	0.00000000e+000   0.0000e+000	
3524.414	140.02	1.70E-03	1.00E-02	0	0.00000000e+000   0.0000e+000	
3526.808	139.9	1.67E-03	1.00E-02	0	0.00000000e+000   0.0000e+000	
3529.211	139.78	1.69E-03	1.00E-02	0	0.00000000e+000   0.0000e+000	
3531.609	139.67	1.65E-03	1.00E-02	0	0.00000000e+000   0.0000e+000	
3534.011	139.55	1.65E-03	1.00E-02	0	0.00000000e+000   0.0000e+000	
3536.408	139.43	1.68E-03	1.00E-02	0	0.00000000e+000   0.0000e+000	
3538.809	139.31	1.67E-03	1.00E-02	0	0.00000000e+000   0.0000e+000	
3541.209	139.2	1.62E-03	1.00E-02	0	0.00000000e+000   0.0000e+000	
3543.61	139.08	1.69E-03	1.00E-02	0	0.00000000e+000   0.0000e+000	
3546.014	138.96	1.65E-03	1.00E-02	0	0.00000000e+000   0.0000e+000	
3548.411	138.85	1.63E-03	1.00E-02	0	0.00000000e+000   0.0000e+000	
3550.811	138.73	1.68E-03	1.00E-02	0	0.00000000e+000   0.0000e+000	
3553.212	138.61	1.68E-03	1.00E-02	0	0.00000000e+000   0.0000e+000	
3555.612	138.5	1.64E-03	1.00E-02	0	0.00000000e+000   0.0000e+000	
3558.017	138.38	1.66E-03	1.00E-02	0	0.00000000e+000   0.0000e+000	
3560.413	138.26	1.70E-03	1.00E-02	0	0.00000000e+000   0.0000e+000	
3562.815	138.14	1.58E-03	1.00E-02	0	0.00000000e+000   0.0000e+000	
3565.215	138.03	1.66E-03	1.00E-02	0	0.00000000e+000   0.0000e+000	
3567.618	137.91	1.61E-03	1.00E-02	0	0.00000000e+000   0.0000e+000	
3570.024	137.79	1.67E-03	1.00E-02	0	0.00000000e+000   0.0000e+000	
3572.423	137.68	1.62E-03	1.00E-02	0	0.00000000e+000   0.0000e+000	
3574.818	137.56	1.62E-03	1.00E-02	0	0.00000000e+000   0.0000e+000	
3577.22	137.45	1.61E-03	1.00E-02	0	0.00000000e+000   0.0000e+000	
3579.617	137.33	1.65E-03	1.00E-02	0	0.00000000e+000   0.0000e+000	
3582.021	137.21	1.64E-03	1.00E-02	0	0.00000000e+000   0.0000e+000	
3584.418	137.1	1.65E-03	1.00E-02	0	0.00000000e+000   0.0000e+000	
3586.818	136.98	1.60E-03	1.00E-02	0	0.00000000e+000   0.0000e+000	
3589.219	136.86	1.59E-03	1.00E-02	0	0.00000000e+000   0.0000e+000	
3591.62	136.75	1.65E-03	1.00E-02	0	0.00000000e+000   0.0000e+000	
3594.023	136.63	1.66E-03	1.00E-02	0	0.00000000e+000   0.0000e+000	
3596.42	136.51	1.71E-03	1.00E-02	0	0.00000000e+000   0.0000e+000	
3598.82	136.4	1.63E-03	1.00E-02	0	0.00000000e+000   0.0000e+000	
3601.221	136.28	1.63E-03	1.00E-02	0	0.00000000e+000   0.0000e+000	
3603.622	136.16	1.65E-03	1.00E-02	0	0.00000000e+000   0.0000e+000	
3606.028	136.05	1.67E-03	1.00E-02	0	0.00000000e+000   0.0000e+000	
3608.424	135.93	1.60E-03	1.00E-02	0	0.00000000e+000   0.0000e+000	
3610.823	135.81	1.63E-03	1.00E-02	0	0.00000000e+000   0.0000e+000	
3613.226	135.7	1.65E-03	1.00E-02	0	0.00000000e+000   0.0000e+000	
3615.628	135.58	1.63E-03	1.00E-02	0	0.00000000e+000   0.0000e+000	
3618.035	135.47	1.60E-03	1.00E-02	0	0.00000000e+000   0.0000e+000	
3620.426	135.35	1.70E-03	1.00E-02	0	0.00000000e+000   0.0000e+000	
3622.828	135.23	1.56E-03	1.00E-02	0	0.00000000e+000   0.0000e+000	
3625.233	135.12	1.64E-03	1.00E-02	0	0.00000000e+000   0.0000e+000	
3627.626	135	1.63E-03	1.00E-02	0	0.00000000e+000   0.0000e+000	
3630.03	134.88	1.63E-03	1.00E-02	0	0.00000000e+000   0.0000e+000	
3632.426	134.77	1.58E-03	1.00E-02	0	0.00000000e+000   0.0000e+000	
3634.827	134.65	1.61E-03	1.00E-02	0	0.00000000e+000   0.0000e+000	
3637.228	134.54	1.66E-03	1.00E-02	0	0.00000000e+000   0.0000e+000	
3639.628	134.42	1.59E-03	1.00E-02	0	0.00000000e+000   0.0000e+000	
3642.031	134.3	1.64E-03	1.00E-02	0	0.00000000e+000   0.0000e+000	
3644.428	134.19	1.61E-03	1.00E-02	0	0.00000000e+000   0.0000e+000	
3646.829	134.07	1.60E-03	1.00E-02	0	0.00000000e+000   0.0000e+000	
3649.229	133.96	1.66E-03	1.00E-02	0	0.00000000e+000   0.0000e+000	
3651.63	133.84	1.63E-03	1.00E-02	0	0.00000000e+000   0.0000e+000	
3654.035	133.72	1.64E-03	1.00E-02	0	0.00000000e+000   0.0000e+000	
3656.432	133.61	1.82E-03	1.00E-02	0	0.00000000e+000   0.0000e+000	
3658.832	133.49	1.85E-03	1.00E-02	0	0.00000000e+000   0.0000e+000	
3661.234	133.37	1.77E-03	1.00E-02	0	0.00000000e+000   0.0000e+000	
3663.633	133.26	1.79E-03	1.00E-02	0	0.00000000e+000   0.0000e+000	
3666.039	133.14	1.85E-03	1.00E-02	0	0.00000000e+000   0.0000e+000	
3668.438	133.03	1.83E-03	1.00E-02	0	0.00000000e+000   0.0000e+000	
3670.842	132.91	1.83E-03	1.00E-02	0	0.00000000e+000   0.0000e+000	
3673.236	132.8	1.76E-03	1.00E-02	0	0.00000000e+000   0.0000e+000	
3675.638	132.68	1.84E-03	1.00E-02	0	0.00000000e+000   0.0000e+000	
3678.047	132.57	1.89E-03	1.00E-02	0	0.00000000e+000   0.0000e+000	
3680.436	132.45	1.80E-03	1.00E-02	0	0.00000000e+000   0.0000e+000	
3682.837	132.33	1.81E-03	1.00E-02	0	0.00000000e+000   0.0000e+000	
3685.236	132.22	1.80E-03	1.00E-02	0	0.00000000e+000   0.0000e+000	
3687.638	132.1	1.86E-03	1.00E-02	0	0.00000000e+000   0.0000e+000	
3690.041	131.99	1.82E-03	1.00E-02	0	0.00000000e+000   0.0000e+000	
3692.438	131.87	1.82E-03	1.00E-02	0	0.00000000e+000   0.0000e+000	
3694.839	131.75	1.82E-03	1.00E-02	0	0.00000000e+000   0.0000e+000	
3697.239	131.64	1.82E-03	1.00E-02	0	0.00000000e+000   0.0000e+000	
3699.639	131.52	1.83E-03	1.00E-02	0	0.00000000e+000   0.0000e+000	
3702.043	131.41	1.79E-03	1.00E-02	0	0.00000000e+000   0.0000e+000	
3704.441	131.29	1.82E-03	1.00E-02	0	0.00000000e+000   0.0000e+000	
3706.841	131.17	1.86E-03	1.00E-02	0	0.00000000e+000   0.0000e+000	
3709.242	131.06	1.83E-03	1.00E-02	0	0.00000000e+000   0.0000e+000	
3711.642	130.94	1.83E-03	1.00E-02	0	0.00000000e+000   0.0000e+000	
3714.047	130.83	1.80E-03	1.00E-02	0	0.00000000e+000   0.0000e+000	
3716.443	130.71	1.80E-03	1.00E-02	0	0.00000000e+000   0.0000e+000	
3718.845	130.6	1.84E-03	1.00E-02	0	0.00000000e+000   0.0000e+000	
3721.248	130.48	1.82E-03	1.00E-02	0	0.00000000e+000   0.0000e+000	
3723.651	130.37	1.85E-03	1.00E-02	0	0.00000000e+000   0.0000e+000	
3726.049	130.25	1.78E-03	1.00E-02	0	0.00000000e+000   0.0000e+000	
3728.448	130.14	1.82E-03	1.00E-02	0	0.00000000e+000   0.0000e+000	
3730.852	130.02	1.84E-03	1.00E-02	0	0.00000000e+000   0.0000e+000	
3733.245	129.9	1.81E-03	1.00E-02	0	0.00000000e+000   0.0000e+000	
3735.646	129.78	1.81E-03	1.00E-02	0	0.00000000e+000   0.0000e+000	
3738.05	129.67	1.80E-03	1.00E-02	0	0.00000000e+000   0.0000e+000	
3740.447	129.55	1.80E-03	1.00E-02	0	0.00000000e+000   0.0000e+000	
3742.848	129.43	1.80E-03	1.00E-02	0	0.00000000e+000   0.0000e+000	
3745.249	129.31	1.80E-03	1.00E-02	0	0.00000000e+000   0.0000e+000	
3747.649	129.19	1.83E-03	1.00E-02	0	0.00000000e+000   0.0000e+000	
3750.052	129.08	1.77E-03	1.00E-02	0	0.00000000e+000   0.0000e+000	
3752.449	128.96	1.75E-03	1.00E-02	0	0.00000000e+000   0.0000e+000	
3754.849	128.84	1.81E-03	1.00E-02	0	0.00000000e+000   0.0000e+000	
3757.25	128.72	1.83E-03	1.00E-02	0	0.00000000e+000   0.0000e+000	
3759.651	128.61	1.81E-03	1.00E-02	0	0.00000000e+000   0.0000e+000	
3762.056	128.49	1.81E-03	1.00E-02	0	0.00000000e+000   0.0000e+000	
3764.453	128.37	1.81E-03	1.00E-02	0	0.00000000e+000   0.0000e+000	
3766.854	128.25	1.83E-03	1.00E-02	0	0.00000000e+000   0.0000e+000	
3769.253	128.14	1.81E-03	1.00E-02	0	0.00000000e+000   0.0000e+000	
3771.656	128.02	1.81E-03	1.00E-02	0	0.00000000e+000   0.0000e+000	
3774.062	127.9	1.84E-03	1.00E-02	0	0.00000000e+000   0.0000e+000	
3776.456	127.79	1.86E-03	1.00E-02	0	0.00000000e+000   0.0000e+000	
3778.857	127.67	1.82E-03	1.00E-02	0	0.00000000e+000   0.0000e+000	
3781.259	127.55	1.84E-03	1.00E-02	0	0.00000000e+000   0.0000e+000	
3783.661	127.43	1.84E-03	1.00E-02	0	0.00000000e+000   0.0000e+000	
3786.059	127.32	1.79E-03	1.00E-02	0	0.00000000e+000   0.0000e+000	
3788.456	127.2	1.80E-03	1.00E-02	0	0.00000000e+000   0.0000e+000	
3790.855	127.08	1.85E-03	1.00E-02	0	0.00000000e+000   0.0000e+000	
3793.257	126.97	1.86E-03	1.00E-02	0	0.00000000e+000   0.0000e+000	
3795.658	126.85	1.81E-03	1.00E-02	0	0.00000000e+000   0.0000e+000	
3798.061	126.73	1.83E-03	1.00E-02	0	0.00000000e+000   0.0000e+000	
3800.458	126.62	1.72E-03	1.00E-02	0	0.00000000e+000   0.0000e+000	
3802.858	126.5	1.81E-03	1.00E-02	0	0.00000000e+000   0.0000e+000	
3805.259	126.38	1.80E-03	1.00E-02	0	0.00000000e+000   0.0000e+000	
3807.66	126.26	1.80E-03	1.00E-02	0	0.00000000e+000   0.0000e+000	
3810.066	126.15	1.81E-03	1.00E-02	0	0.00000000e+000   0.0000e+000	
3812.462	126.03	1.78E-03	1.00E-02	0	0.00000000e+000   0.0000e+000	
3814.861	125.91	1.83E-03	1.00E-02	0	0.00000000e+000   0.0000e+000	
3817.264	125.8	1.78E-03	1.00E-02	0	0.00000000e+000   0.0000e+000	
3819.666	125.68	1.81E-03	1.00E-02	0	0.00000000e+000   0.0000e+000	
3822.072	125.56	1.78E-03	1.00E-02	0	0.00000000e+000   0.0000e+000	
3824.463	125.45	1.82E-03	1.00E-02	0	0.00000000e+000   0.0000e+000	
3826.866	125.33	1.82E-03	1.00E-02	0	0.00000000e+000   0.0000e+000	
3829.268	125.21	1.73E-03	1.00E-02	0	0.00000000e+000   0.0000e+000	
3831.664	125.1	1.85E-03	1.00E-02	0	0.00000000e+000   0.0000e+000	
3834.068	124.98	1.81E-03	1.00E-02	0	0.00000000e+000   0.0000e+000	
3836.465	124.86	1.79E-03	1.00E-02	0	0.00000000e+000   0.0000e+000	
3838.865	124.74	1.76E-03	1.00E-02	0	0.00000000e+000   0.0000e+000	
3841.266	124.63	1.79E-03	1.00E-02	0	0.00000000e+000   0.0000e+000	
3843.666	124.51	1.80E-03	1.00E-02	0	0.00000000e+000   0.0000e+000	
3846.07	124.39	1.82E-03	1.00E-02	0	0.00000000e+000   0.0000e+000	
3848.467	124.27	1.81E-03	1.00E-02	0	0.00000000e+000   0.0000e+000	
3850.867	124.15	1.75E-03	1.00E-02	0	0.00000000e+000   0.0000e+000	
3853.268	124.04	1.79E-03	1.00E-02	0	0.00000000e+000   0.0000e+000	
3855.67	123.92	1.81E-03	1.00E-02	0	0.00000000e+000   0.0000e+000	
3858.072	123.8	1.77E-03	1.00E-02	0	0.00000000e+000   0.0000e+000	
3860.471	123.69	1.83E-03	1.00E-02	0	0.00000000e+000   0.0000e+000	
3862.872	123.57	1.77E-03	1.00E-02	0	0.00000000e+000   0.0000e+000	
3865.274	123.45	1.78E-03	1.00E-02	0	0.00000000e+000   0.0000e+000	
3867.677	123.33	1.79E-03	1.00E-02	0	0.00000000e+000   0.0000e+000	
3870.082	123.22	1.78E-03	1.00E-02	0	0.00000000e+000   0.0000e+000	
3872.473	123.1	1.78E-03	1.00E-02	0	0.00000000e+000   0.0000e+000	
3874.876	122.98	1.80E-03	1.00E-02	0	0.00000000e+000   0.0000e+000	
3877.272	122.87	1.78E-03	1.00E-02	0	0.00000000e+000   0.0000e+000	
3879.674	122.75	1.77E-03	1.00E-02	0	0.00000000e+000   0.0000e+000	
3882.078	122.63	1.76E-03	1.00E-02	0	0.00000000e+000   0.0000e+000	
3884.474	122.52	2.06E-03	1.00E-02	0	0.00000000e+000   0.0000e+000	
3886.874	122.4	1.70E-03	1.00E-02	0	0.00000000e+000   0.0000e+000	
3889.275	122.28	1.81E-03	1.00E-02	0	0.00000000e+000   0.0000e+000	
3891.675	122.16	1.77E-03	1.00E-02	0	0.00000000e+000   0.0000e+000	
3894.078	122.05	1.74E-03	1.00E-02	0	0.00000000e+000   0.0000e+000	
3896.475	121.93	1.75E-03	1.00E-02	0	0.00000000e+000   0.0000e+000	
3898.877	121.81	1.72E-03	1.00E-02	0	0.00000000e+000   0.0000e+000	
3901.278	121.7	1.75E-03	1.00E-02	0	0.00000000e+000   0.0000e+000	
3903.68	121.58	1.77E-03	1.00E-02	0	0.00000000e+000   0.0000e+000	
3906.082	121.46	1.78E-03	1.00E-02	0	0.00000000e+000   0.0000e+000	
3908.478	121.35	1.77E-03	1.00E-02	0	0.00000000e+000   0.0000e+000	
3910.88	121.23	1.75E-03	1.00E-02	0	0.00000000e+000   0.0000e+000	
3913.283	121.11	1.71E-03	1.00E-02	0	0.00000000e+000   0.0000e+000	
3915.687	120.99	1.75E-03	1.00E-02	0	0.00000000e+000   0.0000e+000	
3918.086	120.88	1.75E-03	1.00E-02	0	0.00000000e+000   0.0000e+000	
3920.483	120.77	1.73E-03	1.00E-02	0	0.00000000e+000   0.0000e+000	
3922.885	120.65	1.70E-03	1.00E-02	0	0.00000000e+000   0.0000e+000	
3925.288	120.53	1.82E-03	1.00E-02	0	0.00000000e+000   0.0000e+000	
3927.683	120.41	1.78E-03	1.00E-02	0	0.00000000e+000   0.0000e+000	
3930.086	120.3	1.78E-03	1.00E-02	0	0.00000000e+000   0.0000e+000	
3932.484	120.18	1.78E-03	1.00E-02	0	0.00000000e+000   0.0000e+000	
3934.884	120.06	1.74E-03	1.00E-02	0	0.00000000e+000   0.0000e+000	
3937.284	119.95	1.67E-03	1.00E-02	0	0.00000000e+000   0.0000e+000	
3939.685	119.83	1.77E-03	1.00E-02	0	0.00000000e+000   0.0000e+000	
3942.088	119.71	1.77E-03	1.00E-02	0	0.00000000e+000   0.0000e+000	
3944.486	119.6	1.75E-03	1.00E-02	0	0.00000000e+000   0.0000e+000	
3946.886	119.48	1.74E-03	1.00E-02	0	0.00000000e+000   0.0000e+000	
3949.288	119.36	1.78E-03	1.00E-02	0	0.00000000e+000   0.0000e+000	
3951.687	119.25	1.73E-03	1.00E-02	0	0.00000000e+000   0.0000e+000	
3954.092	119.13	1.72E-03	1.00E-02	0	0.00000000e+000   0.0000e+000	
3956.488	119.01	1.73E-03	1.00E-02	0	0.00000000e+000   0.0000e+000	
3958.891	118.9	1.74E-03	1.00E-02	0	0.00000000e+000   0.0000e+000	
3961.293	118.78	1.78E-03	1.00E-02	0	0.00000000e+000   0.0000e+000	
3963.696	118.67	1.71E-03	1.00E-02	0	0.00000000e+000   0.0000e+000	
3966.094	118.55	1.71E-03	1.00E-02	0	0.00000000e+000   0.0000e+000	
3968.493	118.43	1.73E-03	1.00E-02	0	0.00000000e+000   0.0000e+000	
3970.895	118.32	1.75E-03	1.00E-02	0	0.00000000e+000   0.0000e+000	
3973.291	118.2	1.76E-03	1.00E-02	0	0.00000000e+000   0.0000e+000	
3975.691	118.09	1.74E-03	1.00E-02	0	0.00000000e+000   0.0000e+000	
3978.094	117.97	1.85E-03	1.00E-02	0	0.00000000e+000   0.0000e+000	
3980.493	117.85	1.76E-03	1.00E-02	0	0.00000000e+000   0.0000e+000	
3982.892	117.74	1.78E-03	1.00E-02	0	0.00000000e+000   0.0000e+000	
3985.293	117.62	1.75E-03	1.00E-02	0	0.00000000e+000   0.0000e+000	
3987.694	117.51	1.71E-03	1.00E-02	0	0.00000000e+000   0.0000e+000	
3990.098	117.39	1.76E-03	1.00E-02	0	0.00000000e+000   0.0000e+000	
3992.495	117.27	1.67E-03	1.00E-02	0	0.00000000e+000   0.0000e+000	
3994.895	117.16	1.78E-03	1.00E-02	0	0.00000000e+000   0.0000e+000	
3997.295	117.04	1.76E-03	1.00E-02	0	0.00000000e+000   0.0000e+000	
3999.696	116.92	1.74E-03	1.00E-02	0	0.00000000e+000   0.0000e+000	
4002.103	116.81	1.75E-03	1.00E-02	0	0.00000000e+000   0.0000e+000	
4004.498	116.69	1.71E-03	1.00E-02	0	0.00000000e+000   0.0000e+000	
4006.9	116.58	1.72E-03	1.00E-02	0	0.00000000e+000   0.0000e+000	
4009.3	116.46	1.74E-03	1.00E-02	0	0.00000000e+000   0.0000e+000	
4011.702	116.35	1.92E-03	1.00E-02	0	0.00000000e+000   0.0000e+000	
4014.108	116.23	1.67E-03	1.00E-02	0	0.00000000e+000   0.0000e+000	
4016.501	116.12	1.75E-03	1.00E-02	0	0.00000000e+000   0.0000e+000	
4018.901	116	1.75E-03	1.00E-02	0	0.00000000e+000   0.0000e+000	
4021.307	115.88	1.75E-03	1.00E-02	0	0.00000000e+000   0.0000e+000	
4023.701	115.77	1.74E-03	1.00E-02	0	0.00000000e+000   0.0000e+000	
4026.105	115.65	1.67E-03	1.00E-02	0	0.00000000e+000   0.0000e+000	
4028.502	115.54	1.71E-03	1.00E-02	0	0.00000000e+000   0.0000e+000	
4030.901	115.42	1.70E-03	1.00E-02	0	0.00000000e+000   0.0000e+000	
4033.302	115.3	1.70E-03	1.00E-02	0	0.00000000e+000   0.0000e+000	
4035.702	115.19	1.72E-03	1.00E-02	0	0.00000000e+000   0.0000e+000	
4038.106	115.07	1.73E-03	1.00E-02	0	0.00000000e+000   0.0000e+000	
4040.503	114.96	1.73E-03	1.00E-02	0	0.00000000e+000   0.0000e+000	
4042.904	114.84	1.73E-03	1.00E-02	0	0.00000000e+000   0.0000e+000	
4045.304	114.72	1.71E-03	1.00E-02	0	0.00000000e+000   0.0000e+000	
4047.705	114.6	1.69E-03	1.00E-02	0	0.00000000e+000   0.0000e+000	
4050.108	114.48	1.72E-03	1.00E-02	0	0.00000000e+000   0.0000e+000	
4052.508	114.36	1.74E-03	1.00E-02	0	0.00000000e+000   0.0000e+000	
4054.907	114.25	1.70E-03	1.00E-02	0	0.00000000e+000   0.0000e+000	
4057.307	114.13	1.69E-03	1.00E-02	0	0.00000000e+000   0.0000e+000	
4059.709	114.01	1.72E-03	1.00E-02	0	0.00000000e+000   0.0000e+000	
4062.115	113.89	1.74E-03	1.00E-02	0	0.00000000e+000   0.0000e+000	
4064.514	113.77	1.72E-03	1.00E-02	0	0.00000000e+000   0.0000e+000	
4066.908	113.66	1.73E-03	1.00E-02	0	0.00000000e+000   0.0000e+000	
4069.311	113.54	1.71E-03	1.00E-02	0	0.00000000e+000   0.0000e+000	
4071.709	113.42	1.73E-03	1.00E-02	0	0.00000000e+000   0.0000e+000	
4074.113	113.31	1.70E-03	1.00E-02	0	0.00000000e+000   0.0000e+000	
4076.51	113.19	1.76E-03	1.00E-02	0	0.00000000e+000   0.0000e+000	
4078.91	113.07	1.75E-03	1.00E-02	0	0.00000000e+000   0.0000e+000	
4081.31	112.95	1.72E-03	1.00E-02	0	0.00000000e+000   0.0000e+000	
4083.711	112.83	1.68E-03	1.00E-02	0	0.00000000e+000   0.0000e+000	
4086.115	112.72	1.70E-03	1.00E-02	0	0.00000000e+000   0.0000e+000	
4088.511	112.6	1.71E-03	1.00E-02	0	0.00000000e+000   0.0000e+000	
4090.914	112.48	1.70E-03	1.00E-02	0	0.00000000e+000   0.0000e+000	
4093.314	112.36	1.70E-03	1.00E-02	0	0.00000000e+000   0.0000e+000	
4095.713	112.24	1.70E-03	1.00E-02	0	0.00000000e+000   0.0000e+000	
4098.118	112.13	1.73E-03	1.00E-02	0	0.00000000e+000   0.0000e+000	
4100.514	112.01	1.71E-03	1.00E-02	0	0.00000000e+000   0.0000e+000	
4102.915	111.89	1.73E-03	1.00E-02	0	0.00000000e+000   0.0000e+000	
4105.317	111.77	1.67E-03	1.00E-02	0	0.00000000e+000   0.0000e+000	
4107.717	111.66	1.73E-03	1.00E-02	0	0.00000000e+000   0.0000e+000	
4110.123	111.54	1.75E-03	1.00E-02	0	0.00000000e+000   0.0000e+000	
4112.519	111.42	1.53E-03	1.00E-02	0	0.00000000e+000   0.0000e+000	
4114.921	111.3	1.70E-03	1.00E-02	0	0.00000000e+000   0.0000e+000	
4117.324	111.18	1.69E-03	1.00E-02	0	0.00000000e+000   0.0000e+000	
4119.719	111.07	1.59E-03	1.00E-02	0	0.00000000e+000   0.0000e+000	
4122.124	110.95	1.69E-03	1.00E-02	0	0.00000000e+000   0.0000e+000	
4124.524	110.83	1.67E-03	1.00E-02	0	0.00000000e+000   0.0000e+000	
4126.92	110.71	1.68E-03	1.00E-02	0	0.00000000e+000   0.0000e+000	
4129.32	110.6	1.67E-03	1.00E-02	0	0.00000000e+000   0.0000e+000	
4131.721	110.48	1.74E-03	1.00E-02	0	0.00000000e+000   0.0000e+000	
4134.123	110.36	1.69E-03	1.00E-02	0	0.00000000e+000   0.0000e+000	
4136.521	110.24	1.70E-03	1.00E-02	0	0.00000000e+000   0.0000e+000	
4138.921	110.13	1.67E-03	1.00E-02	0	0.00000000e+000   0.0000e+000	
4141.322	110.01	1.66E-03	1.00E-02	0	0.00000000e+000   0.0000e+000	
4143.723	109.89	1.71E-03	1.00E-02	0	0.00000000e+000   0.0000e+000	
4146.127	109.77	1.72E-03	1.00E-02	0	0.00000000e+000   0.0000e+000	
4148.523	109.65	1.71E-03	1.00E-02	0	0.00000000e+000   0.0000e+000	
4150.924	109.53	1.71E-03	1.00E-02	0	0.00000000e+000   0.0000e+000	
4153.326	109.41	1.70E-03	1.00E-02	0	0.00000000e+000   0.0000e+000	
4155.724	109.3	1.72E-03	1.00E-02	0	0.00000000e+000   0.0000e+000	
4158.13	109.18	1.67E-03	1.00E-02	0	0.00000000e+000   0.0000e+000	
4160.527	109.06	1.70E-03	1.00E-02	0	0.00000000e+000   0.0000e+000	
4162.93	108.94	1.66E-03	1.00E-02	0	0.00000000e+000   0.0000e+000	
4165.332	108.82	1.69E-03	1.00E-02	0	0.00000000e+000   0.0000e+000	
4167.735	108.7	1.71E-03	1.00E-02	0	0.00000000e+000   0.0000e+000	
4170.133	108.59	1.67E-03	1.00E-02	0	0.00000000e+000   0.0000e+000	
4172.531	108.47	1.68E-03	1.00E-02	0	0.00000000e+000   0.0000e+000	
4174.928	108.35	1.66E-03	1.00E-02	0	0.00000000e+000   0.0000e+000	
4177.329	108.23	1.68E-03	1.00E-02	0	0.00000000e+000   0.0000e+000	
4179.729	108.11	1.75E-03	1.00E-02	0	0.00000000e+000   0.0000e+000	
4182.133	107.99	1.74E-03	1.00E-02	0	0.00000000e+000   0.0000e+000	
4184.53	107.87	1.71E-03	1.00E-02	0	0.00000000e+000   0.0000e+000	
4186.931	107.76	1.66E-03	1.00E-02	0	0.00000000e+000   0.0000e+000	
4189.331	107.64	1.67E-03	1.00E-02	0	0.00000000e+000   0.0000e+000	
4191.731	107.52	1.62E-03	1.00E-02	0	0.00000000e+000   0.0000e+000	
4194.136	107.4	1.68E-03	1.00E-02	0	0.00000000e+000   0.0000e+000	
4196.533	107.28	1.68E-03	1.00E-02	0	0.00000000e+000   0.0000e+000	
4198.933	107.16	1.67E-03	1.00E-02	0	0.00000000e+000   0.0000e+000	
4201.334	107.05	1.66E-03	1.00E-02	0	0.00000000e+000   0.0000e+000	
4203.734	106.93	1.64E-03	1.00E-02	0	0.00000000e+000   0.0000e+000	
4206.14	106.81	1.67E-03	1.00E-02	0	0.00000000e+000   0.0000e+000	
4208.535	106.69	1.66E-03	1.00E-02	0	0.00000000e+000   0.0000e+000	
4210.934	106.57	1.68E-03	1.00E-02	0	0.00000000e+000   0.0000e+000	
4213.338	106.46	1.66E-03	1.00E-02	0	0.00000000e+000   0.0000e+000	
4215.74	106.34	1.67E-03	1.00E-02	0	0.00000000e+000   0.0000e+000	
4218.146	106.22	1.67E-03	1.00E-02	0	0.00000000e+000   0.0000e+000	
4220.538	106.11	1.69E-03	1.00E-02	0	0.00000000e+000   0.0000e+000	
4222.939	105.99	1.67E-03	1.00E-02	0	0.00000000e+000   0.0000e+000	
4225.342	105.87	1.66E-03	1.00E-02	0	0.00000000e+000   0.0000e+000	
4227.738	105.75	1.63E-03	1.00E-02	0	0.00000000e+000   0.0000e+000	
4230.142	105.63	1.65E-03	1.00E-02	0	0.00000000e+000   0.0000e+000	
4232.539	105.52	1.71E-03	1.00E-02	0	0.00000000e+000   0.0000e+000	
4234.94	105.4	1.62E-03	1.00E-02	0	0.00000000e+000   0.0000e+000	
4237.34	105.28	1.35E-03	1.00E-02	0	0.00000000e+000   0.0000e+000	
4239.74	105.16	1.62E-03	1.00E-02	0	0.00000000e+000   0.0000e+000	
4242.144	105.04	1.66E-03	1.00E-02	0	0.00000000e+000   0.0000e+000	
4244.541	104.92	1.63E-03	1.00E-02	0	0.00000000e+000   0.0000e+000	
4246.943	104.8	1.64E-03	1.00E-02	0	0.00000000e+000   0.0000e+000	
4249.343	104.69	1.66E-03	1.00E-02	0	0.00000000e+000   0.0000e+000	
4251.745	104.57	1.60E-03	1.00E-02	0	0.00000000e+000   0.0000e+000	
4254.146	104.45	1.62E-03	1.00E-02	0	0.00000000e+000   0.0000e+000	
4256.545	104.33	1.45E-03	1.00E-02	0	0.00000000e+000   0.0000e+000	
4258.945	104.21	1.62E-03	1.00E-02	0	0.00000000e+000   0.0000e+000	
4261.347	104.09	1.62E-03	1.00E-02	0	0.00000000e+000   0.0000e+000	
4263.75	103.97	1.63E-03	1.00E-02	0	0.00000000e+000   0.0000e+000	
4266.157	103.86	1.63E-03	1.00E-02	0	0.00000000e+000   0.0000e+000	
4268.547	103.74	1.59E-03	1.00E-02	0	0.00000000e+000   0.0000e+000	
4270.95	103.62	1.60E-03	1.00E-02	0	0.00000000e+000   0.0000e+000	
4273.346	103.5	1.58E-03	1.00E-02	0	0.00000000e+000   0.0000e+000	
4275.747	103.38	1.59E-03	1.00E-02	0	0.00000000e+000   0.0000e+000	
4278.15	103.26	1.56E-03	1.00E-02	0	0.00000000e+000   0.0000e+000	
4280.547	103.14	1.47E-03	1.00E-02	0	0.00000000e+000   0.0000e+000	
4282.95	103.02	1.54E-03	1.00E-02	0	0.00000000e+000   0.0000e+000	
4285.35	102.9	1.64E-03	1.00E-02	0	0.00000000e+000   0.0000e+000	
4287.75	102.79	1.67E-03	1.00E-02	0	0.00000000e+000   0.0000e+000	
4290.154	102.67	1.60E-03	1.00E-02	0	0.00000000e+000   0.0000e+000	
4292.551	102.55	1.57E-03	1.00E-02	0	0.00000000e+000   0.0000e+000	
4294.951	102.43	1.94E-03	1.00E-02	0	0.00000000e+000   0.0000e+000	
4297.352	102.31	1.61E-03	1.00E-02	0	0.00000000e+000   0.0000e+000	
4299.753	102.2	1.57E-03	1.00E-02	0	0.00000000e+000   0.0000e+000	
4302.159	102.07	1.55E-03	1.00E-02	0	0.00000000e+000   0.0000e+000	
4304.554	101.96	1.60E-03	1.00E-02	0	0.00000000e+000   0.0000e+000	
4306.954	101.84	1.58E-03	1.00E-02	0	0.00000000e+000   0.0000e+000	
4309.357	101.72	1.57E-03	1.00E-02	0	0.00000000e+000   0.0000e+000	
4311.759	101.6	1.60E-03	1.00E-02	0	0.00000000e+000   0.0000e+000	
4314.165	101.48	1.60E-03	1.00E-02	0	0.00000000e+000   0.0000e+000	
4316.558	101.37	1.59E-03	1.00E-02	0	0.00000000e+000   0.0000e+000	
4318.959	101.25	1.60E-03	1.00E-02	0	0.00000000e+000   0.0000e+000	
4321.361	101.13	1.62E-03	1.00E-02	0	0.00000000e+000   0.0000e+000	
4323.757	101.01	1.60E-03	1.00E-02	0	0.00000000e+000   0.0000e+000	
4326.161	100.89	1.57E-03	1.00E-02	0	0.00000000e+000   0.0000e+000	
4328.558	100.78	1.58E-03	1.00E-02	0	0.00000000e+000   0.0000e+000	
4330.958	100.66	1.58E-03	1.00E-02	0	0.00000000e+000   0.0000e+000	
4333.358	100.54	1.60E-03	1.00E-02	0	0.00000000e+000   0.0000e+000	
4335.76	100.42	1.61E-03	1.00E-02	0	0.00000000e+000   0.0000e+000	
4338.163	100.3	1.60E-03	1.00E-02	0	0.00000000e+000   0.0000e+000	
4340.56	100.18	1.60E-03	1.00E-02	0	0.00000000e+000   0.0000e+000	
4342.961	100.07	1.63E-03	1.00E-02	0	0.00000000e+000   0.0000e+000	
4345.361	99.947	1.60E-03	1.00E-02	0	0.00000000e+000   0.0000e+000	
4347.761	99.831	1.57E-03	1.00E-02	0	0.00000000e+000   0.0000e+000	
4350.166	99.72	1.61E-03	1.00E-02	0	0.00000000e+000   0.0000e+000	
4352.563	99.626	1.57E-03	1.00E-02	0	0.00000000e+000   0.0000e+000	
4354.965	99.537	1.61E-03	1.00E-02	0	0.00000000e+000   0.0000e+000	
4357.365	99.448	1.56E-03	1.00E-02	0	0.00000000e+000   0.0000e+000	
4359.767	99.357	1.61E-03	1.00E-02	0	0.00000000e+000   0.0000e+000	
4362.173	99.267	1.62E-03	1.00E-02	0	0.00000000e+000   0.0000e+000	
4364.565	99.18	1.58E-03	1.00E-02	0	0.00000000e+000   0.0000e+000	
4366.966	99.09	1.56E-03	1.00E-02	0	0.00000000e+000   0.0000e+000	
4369.37	98.998	1.58E-03	1.00E-02	0	0.00000000e+000   0.0000e+000	
4371.766	98.908	1.57E-03	1.00E-02	0	0.00000000e+000   0.0000e+000	
4374.17	98.817	1.61E-03	1.00E-02	0	0.00000000e+000   0.0000e+000	
4376.566	98.726	1.56E-03	1.00E-02	0	0.00000000e+000   0.0000e+000	
4378.967	98.635	1.58E-03	1.00E-02	0	0.00000000e+000   0.0000e+000	
4381.367	98.542	1.58E-03	1.00E-02	0	0.00000000e+000   0.0000e+000	
4383.767	98.449	1.57E-03	1.00E-02	0	0.00000000e+000   0.0000e+000	
4386.171	98.354	1.55E-03	1.00E-02	0	0.00000000e+000   0.0000e+000	
4388.569	98.259	1.54E-03	1.00E-02	0	0.00000000e+000   0.0000e+000	
4390.969	98.166	1.57E-03	1.00E-02	0	0.00000000e+000   0.0000e+000	
4393.37	98.069	1.55E-03	1.00E-02	0	0.00000000e+000   0.0000e+000	
4395.771	97.975	1.58E-03	1.00E-02	0	0.00000000e+000   0.0000e+000	
4398.177	97.877	1.58E-03	1.00E-02	0	0.00000000e+000   0.0000e+000	
4400.572	97.782	1.51E-03	1.00E-02	0	0.00000000e+000   0.0000e+000	
4402.971	97.684	1.58E-03	1.00E-02	0	0.00000000e+000   0.0000e+000	
4405.375	97.587	1.57E-03	1.00E-02	0	0.00000000e+000   0.0000e+000	
4407.777	97.489	1.57E-03	1.00E-02	0	0.00000000e+000   0.0000e+000	
4410.183	97.393	1.55E-03	1.00E-02	0	0.00000000e+000   0.0000e+000	
4412.574	97.294	1.57E-03	1.00E-02	0	0.00000000e+000   0.0000e+000	
4414.977	97.196	1.55E-03	1.00E-02	0	0.00000000e+000   0.0000e+000	
4417.374	97.095	1.55E-03	1.00E-02	0	0.00000000e+000   0.0000e+000	
4419.774	96.995	1.58E-03	1.00E-02	0	0.00000000e+000   0.0000e+000	
4422.178	96.895	1.55E-03	1.00E-02	0	0.00000000e+000   0.0000e+000	
4424.575	96.794	1.61E-03	1.00E-02	0	0.00000000e+000   0.0000e+000	
4426.976	96.693	1.58E-03	1.00E-02	0	0.00000000e+000   0.0000e+000	
4429.376	96.592	1.59E-03	1.00E-02	0	0.00000000e+000   0.0000e+000	
4431.776	96.492	1.60E-03	1.00E-02	0	0.00000000e+000   0.0000e+000	
4434.18	96.391	1.55E-03	1.00E-02	0	0.00000000e+000   0.0000e+000	
4436.577	96.288	1.57E-03	1.00E-02	0	0.00000000e+000   0.0000e+000	
4438.979	96.187	1.56E-03	1.00E-02	0	0.00000000e+000   0.0000e+000	
4441.379	96.085	1.55E-03	1.00E-02	0	0.00000000e+000   0.0000e+000	
4443.781	95.983	1.57E-03	1.00E-02	0	0.00000000e+000   0.0000e+000	
4446.183	95.88	1.57E-03	1.00E-02	0	0.00000000e+000   0.0000e+000	
4448.58	95.774	1.57E-03	1.00E-02	0	0.00000000e+000   0.0000e+000	
4450.982	95.673	1.63E-03	1.00E-02	0	0.00000000e+000   0.0000e+000	
4453.385	95.57	1.57E-03	1.00E-02	0	0.00000000e+000   0.0000e+000	
4455.787	95.465	1.57E-03	1.00E-02	0	0.00000000e+000   0.0000e+000	
4458.187	95.363	1.59E-03	1.00E-02	0	0.00000000e+000   0.0000e+000	
4460.585	95.259	1.53E-03	1.00E-02	0	0.00000000e+000   0.0000e+000	
4462.987	95.153	1.56E-03	1.00E-02	0	0.00000000e+000   0.0000e+000	
4465.383	95.049	1.51E-03	1.00E-02	0	0.00000000e+000   0.0000e+000	
4467.784	94.945	1.59E-03	1.00E-02	0	0.00000000e+000   0.0000e+000	
4470.187	94.837	1.58E-03	1.00E-02	0	0.00000000e+000   0.0000e+000	
4472.584	94.732	1.52E-03	1.00E-02	0	0.00000000e+000   0.0000e+000	
4474.985	94.625	1.49E-03	1.00E-02	0	0.00000000e+000   0.0000e+000	
4477.386	94.518	1.54E-03	1.00E-02	0	0.00000000e+000   0.0000e+000	
4479.785	94.412	1.55E-03	1.00E-02	0	0.00000000e+000   0.0000e+000	
4482.19	94.304	1.54E-03	1.00E-02	0	0.00000000e+000   0.0000e+000	
4484.586	94.196	1.54E-03	1.00E-02	0	0.00000000e+000   0.0000e+000	
4486.987	94.088	1.50E-03	1.00E-02	0	0.00000000e+000   0.0000e+000	
4489.387	93.981	1.49E-03	1.00E-02	0	0.00000000e+000   0.0000e+000	
4491.789	93.874	1.55E-03	1.00E-02	0	0.00000000e+000   0.0000e+000	
4494.195	93.765	1.55E-03	1.00E-02	0	0.00000000e+000   0.0000e+000	
4496.59	93.657	1.57E-03	1.00E-02	0	0.00000000e+000   0.0000e+000	
4498.99	93.548	1.51E-03	1.00E-02	0	0.00000000e+000   0.0000e+000	
4501.392	93.443	1.53E-03	1.00E-02	0	0.00000000e+000   0.0000e+000	
4503.795	93.332	1.50E-03	1.00E-02	0	0.00000000e+000   0.0000e+000	
4506.2	93.225	1.56E-03	1.00E-02	0	0.00000000e+000   0.0000e+000	
4508.591	93.118	1.54E-03	1.00E-02	0	0.00000000e+000   0.0000e+000	
4510.994	93.01	1.51E-03	1.00E-02	0	0.00000000e+000   0.0000e+000	
4513.399	92.901	1.57E-03	1.00E-02	0	0.00000000e+000   0.0000e+000	
4515.793	92.791	1.53E-03	1.00E-02	0	0.00000000e+000   0.0000e+000	
4518.196	92.683	1.45E-03	1.00E-02	0	0.00000000e+000   0.0000e+000	
4520.593	92.572	1.50E-03	1.00E-02	0	0.00000000e+000   0.0000e+000	
4522.994	92.462	1.52E-03	1.00E-02	0	0.00000000e+000   0.0000e+000	
4525.393	92.356	1.49E-03	1.00E-02	0	0.00000000e+000   0.0000e+000	
4527.796	92.247	1.54E-03	1.00E-02	0	0.00000000e+000   0.0000e+000	
4530.199	92.135	1.53E-03	1.00E-02	0	0.00000000e+000   0.0000e+000	
4532.596	92.027	1.52E-03	1.00E-02	0	0.00000000e+000   0.0000e+000	
4534.997	91.916	1.55E-03	1.00E-02	0	0.00000000e+000   0.0000e+000	
4537.397	91.806	1.59E-03	1.00E-02	0	0.00000000e+000   0.0000e+000	
4539.797	91.696	1.49E-03	1.00E-02	0	0.00000000e+000   0.0000e+000	
4542.203	91.584	1.48E-03	1.00E-02	0	0.00000000e+000   0.0000e+000	
4544.599	91.474	1.50E-03	1.00E-02	0	0.00000000e+000   0.0000e+000	
4547.001	91.361	1.48E-03	1.00E-02	0	0.00000000e+000   0.0000e+000	
4549.401	91.25	1.51E-03	1.00E-02	0	0.00000000e+000   0.0000e+000	
4551.804	91.139	1.48E-03	1.00E-02	0	0.00000000e+000   0.0000e+000	
4554.209	91.026	1.48E-03	1.00E-02	0	0.00000000e+000   0.0000e+000	
4556.601	90.918	1.46E-03	1.00E-02	0	0.00000000e+000   0.0000e+000	
4559.003	90.807	1.47E-03	1.00E-02	0	0.00000000e+000   0.0000e+000	
4561.406	90.694	1.52E-03	1.00E-02	0	0.00000000e+000   0.0000e+000	
4563.803	90.584	1.49E-03	1.00E-02	0	0.00000000e+000   0.0000e+000	
4566.207	90.472	1.48E-03	1.00E-02	0	0.00000000e+000   0.0000e+000	
4568.604	90.359	1.47E-03	1.00E-02	0	0.00000000e+000   0.0000e+000	
4571.004	90.246	1.52E-03	1.00E-02	0	0.00000000e+000   0.0000e+000	
4573.404	90.137	1.48E-03	1.00E-02	0	0.00000000e+000   0.0000e+000	
4575.804	90.024	4.60E-03	1.00E-02	0	0.00000000e+000   0.0000e+000	
4578.208	89.908	-7.87E-04	1.00E-02	0	0.00000000e+000   0.0000e+000	
4580.606	89.795	2.12E-03	1.00E-02	0	0.00000000e+000   0.0000e+000	
4583.006	89.68	2.38E-03	1.00E-02	0	0.00000000e+000   0.0000e+000	
4585.406	89.566	1.44E-03	1.00E-02	0	0.00000000e+000   0.0000e+000	
4587.806	89.452	1.44E-03	1.00E-02	0	0.00000000e+000   0.0000e+000	
4590.211	89.336	1.62E-03	1.00E-02	0	0.00000000e+000   0.0000e+000	
4592.607	89.221	1.52E-03	1.00E-02	0	0.00000000e+000   0.0000e+000	
4595.009	89.106	1.38E-03	1.00E-02	0	0.00000000e+000   0.0000e+000	
4597.41	88.992	1.43E-03	1.00E-02	0	0.00000000e+000   0.0000e+000	
4599.813	88.876	1.51E-03	1.00E-02	0	0.00000000e+000   0.0000e+000	
4602.218	88.762	1.51E-03	1.00E-02	0	0.00000000e+000   0.0000e+000	
4604.611	88.648	1.48E-03	1.00E-02	0	0.00000000e+000   0.0000e+000	
4607.012	88.533	1.47E-03	1.00E-02	0	0.00000000e+000   0.0000e+000	
4609.415	88.419	1.50E-03	1.00E-02	0	0.00000000e+000   0.0000e+000	
4611.81	88.302	1.45E-03	1.00E-02	0	0.00000000e+000   0.0000e+000	
4614.216	88.186	1.43E-03	1.00E-02	0	0.00000000e+000   0.0000e+000	
4616.612	88.071	1.51E-03	1.00E-02	0	0.00000000e+000   0.0000e+000	
4619.012	87.956	1.64E-03	1.00E-02	0	0.00000000e+000   0.0000e+000	
4621.413	87.838	1.43E-03	1.00E-02	0	0.00000000e+000   0.0000e+000	
4623.813	87.722	1.44E-03	1.00E-02	0	0.00000000e+000   0.0000e+000	
4626.216	87.607	1.44E-03	1.00E-02	0	0.00000000e+000   0.0000e+000	
4628.614	87.49	1.48E-03	1.00E-02	0	0.00000000e+000   0.0000e+000	
4631.014	87.374	1.40E-03	1.00E-02	0	0.00000000e+000   0.0000e+000	
4633.416	87.258	1.46E-03	1.00E-02	0	0.00000000e+000   0.0000e+000	
4635.817	87.141	1.43E-03	1.00E-02	0	0.00000000e+000   0.0000e+000	
4638.219	87.025	1.42E-03	1.00E-02	0	0.00000000e+000   0.0000e+000	
4640.617	86.909	1.43E-03	1.00E-02	0	0.00000000e+000   0.0000e+000	
4643.017	86.792	1.44E-03	1.00E-02	0	0.00000000e+000   0.0000e+000	
4645.42	86.676	1.18E-03	1.00E-02	0	0.00000000e+000   0.0000e+000	
4647.823	86.559	1.43E-03	1.00E-02	0	0.00000000e+000   0.0000e+000	
4650.229	86.444	1.20E-03	1.00E-02	0	0.00000000e+000   0.0000e+000	
4652.62	86.328	1.44E-03	1.00E-02	0	0.00000000e+000   0.0000e+000	
4655.022	86.209	1.45E-03	1.00E-02	0	0.00000000e+000   0.0000e+000	
4657.42	86.091	1.24E-03	1.00E-02	0	0.00000000e+000   0.0000e+000	
4659.82	85.974	4.23E-04	1.00E-02	0	0.00000000e+000   0.0000e+000	
4662.224	85.857	1.33E-03	1.00E-02	0	0.00000000e+000   0.0000e+000	
4664.621	85.74	1.36E-03	1.00E-02	0	0.00000000e+000   0.0000e+000	
4667.022	85.621	1.39E-03	1.00E-02	0	0.00000000e+000   0.0000e+000	
4669.423	85.505	1.39E-03	1.00E-02	0	0.00000000e+000   0.0000e+000	
4671.823	85.386	1.38E-03	1.00E-02	0	0.00000000e+000   0.0000e+000	
4674.226	85.267	1.38E-03	1.00E-02	0	0.00000000e+000   0.0000e+000	
4676.623	85.151	1.38E-03	1.00E-02	0	0.00000000e+000   0.0000e+000	
4679.023	85.033	1.35E-03	1.00E-02	0	0.00000000e+000   0.0000e+000	
4681.423	84.915	1.34E-03	1.00E-02	0	0.00000000e+000   0.0000e+000	
4683.825	84.795	1.36E-03	1.00E-02	0	0.00000000e+000   0.0000e+000	
4686.23	84.676	1.31E-03	1.00E-02	0	0.00000000e+000   0.0000e+000	
4688.626	84.558	1.28E-03	1.00E-02	0	0.00000000e+000   0.0000e+000	
4691.027	84.44	1.29E-03	1.00E-02	0	0.00000000e+000   0.0000e+000	
4693.427	84.321	1.19E-03	1.00E-02	0	0.00000000e+000   0.0000e+000	
4695.83	84.2	1.18E-03	1.00E-02	0	0.00000000e+000   0.0000e+000	
4698.235	84.083	1.11E-03	1.00E-02	0	0.00000000e+000   0.0000e+000	
4700.634	83.967	1.03E-03	1.00E-02	0	0.00000000e+000   0.0000e+000	
4703.029	83.846	9.86E-04	1.00E-02	0	0.00000000e+000   0.0000e+000	
4705.432	83.729	9.45E-04	1.00E-02	0	0.00000000e+000   0.0000e+000	
4707.829	83.608	9.11E-04	1.00E-02	0	0.00000000e+000   0.0000e+000	
4710.233	83.489	8.69E-04	1.00E-02	0	0.00000000e+000   0.0000e+000	
4712.63	83.369	7.98E-04	1.00E-02	0	0.00000000e+000   0.0000e+000	
4715.029	83.249	7.49E-04	1.00E-02	0	0.00000000e+000   0.0000e+000	
4717.43	83.129	7.03E-04	1.00E-02	0	0.00000000e+000   0.0000e+000	
4719.831	83.011	7.00E-04	1.00E-02	0	0.00000000e+000   0.0000e+000	
4722.235	82.891	6.84E-04	1.00E-02	0	0.00000000e+000   0.0000e+000	
4724.632	82.771	6.87E-04	1.00E-02	0	0.00000000e+000   0.0000e+000	
4727.032	82.65	6.36E-04	1.00E-02	0	0.00000000e+000   0.0000e+000	
4729.433	82.532	6.50E-04	1.00E-02	0	0.00000000e+000   0.0000e+000	
4731.833	82.412	6.12E-04	1.00E-02	0	0.00000000e+000   0.0000e+000	
4734.237	82.291	7.01E-04	1.00E-02	0	0.00000000e+000   0.0000e+000	
4736.637	82.171	5.66E-04	1.00E-02	0	0.00000000e+000   0.0000e+000	
4739.036	82.051	5.17E-04	1.00E-02	0	0.00000000e+000   0.0000e+000	
4741.435	81.928	5.11E-04	1.00E-02	0	0.00000000e+000   0.0000e+000	
4743.838	81.809	3.91E-04	1.00E-02	0	0.00000000e+000   0.0000e+000	
4746.244	81.69	6.38E-04	1.00E-02	0	0.00000000e+000   0.0000e+000	
4748.643	81.568	4.28E-04	1.00E-02	0	0.00000000e+000   0.0000e+000	
4751.037	81.449	5.38E-04	1.00E-02	0	0.00000000e+000   0.0000e+000	
4753.44	81.33	6.26E-04	1.00E-02	0	0.00000000e+000   0.0000e+000	
4755.845	81.207	4.94E-04	1.00E-02	0	0.00000000e+000   0.0000e+000	
4758.242	81.085	5.37E-04	1.00E-02	0	0.00000000e+000   0.0000e+000	
4760.639	80.965	5.08E-04	1.00E-02	0	0.00000000e+000   0.0000e+000	
4763.039	80.844	5.09E-04	1.00E-02	0	0.00000000e+000   0.0000e+000	
4765.439	80.722	4.84E-04	1.00E-02	0	0.00000000e+000   0.0000e+000	
4767.84	80.602	4.59E-04	1.00E-02	0	0.00000000e+000   0.0000e+000	
4770.244	80.479	4.78E-04	1.00E-02	0	0.00000000e+000   0.0000e+000	
4772.642	80.36	3.79E-04	1.00E-02	0	0.00000000e+000   0.0000e+000	
4775.042	80.237	5.15E-04	1.00E-02	0	0.00000000e+000   0.0000e+000	
4777.442	80.116	4.95E-04	1.00E-02	0	0.00000000e+000   0.0000e+000	
4779.844	79.993	4.96E-04	1.00E-02	0	0.00000000e+000   0.0000e+000	
4782.247	79.871	4.82E-04	1.00E-02	0	0.00000000e+000   0.0000e+000	
4784.645	79.749	4.48E-04	1.00E-02	0	0.00000000e+000   0.0000e+000	
4787.044	79.625	4.94E-04	1.00E-02	0	0.00000000e+000   0.0000e+000	
4789.448	79.503	4.89E-04	1.00E-02	0	0.00000000e+000   0.0000e+000	
4791.851	79.382	4.63E-04	1.00E-02	0	0.00000000e+000   0.0000e+000	
4794.249	79.262	4.88E-04	1.00E-02	0	0.00000000e+000   0.0000e+000	
4796.647	79.139	4.65E-04	1.00E-02	0	0.00000000e+000   0.0000e+000	
4799.05	79.016	5.31E-04	1.00E-02	0	0.00000000e+000   0.0000e+000	
4801.446	78.896	4.95E-04	1.00E-02	0	0.00000000e+000   0.0000e+000	
4803.846	78.771	5.04E-04	1.00E-02	0	0.00000000e+000   0.0000e+000	
4806.251	78.649	4.86E-04	1.00E-02	0	0.00000000e+000   0.0000e+000	
4808.648	78.525	5.18E-04	1.00E-02	0	0.00000000e+000   0.0000e+000	
4811.049	78.404	4.67E-04	1.00E-02	0	0.00000000e+000   0.0000e+000	
4813.449	78.279	4.59E-04	1.00E-02	0	0.00000000e+000   0.0000e+000	
4815.849	78.157	5.44E-04	1.00E-02	0	0.00000000e+000   0.0000e+000	
4818.253	78.033	4.47E-04	1.00E-02	0	0.00000000e+000   0.0000e+000	
4820.65	77.907	4.45E-04	1.00E-02	0	0.00000000e+000   0.0000e+000	
4823.05	77.779	4.27E-04	1.00E-02	0	0.00000000e+000   0.0000e+000	
4825.452	77.651	4.42E-04	1.00E-02	0	0.00000000e+000   0.0000e+000	
4827.852	77.522	4.28E-04	1.00E-02	0	0.00000000e+000   0.0000e+000	
4830.257	77.398	4.01E-04	1.00E-02	0	0.00000000e+000   0.0000e+000	
4832.652	77.268	4.53E-04	1.00E-02	0	0.00000000e+000   0.0000e+000	
4835.055	77.139	4.42E-04	1.00E-02	0	0.00000000e+000   0.0000e+000	
4837.454	77.011	3.94E-04	1.00E-02	0	0.00000000e+000   0.0000e+000	
4839.857	76.885	5.13E-04	1.00E-02	0	0.00000000e+000   0.0000e+000	
4842.264	76.756	3.76E-04	1.00E-02	0	0.00000000e+000   0.0000e+000	
4844.656	76.631	4.54E-04	1.00E-02	0	0.00000000e+000   0.0000e+000	
4847.057	76.502	5.04E-04	1.00E-02	0	0.00000000e+000   0.0000e+000	
4849.459	76.375	4.32E-04	1.00E-02	0	0.00000000e+000   0.0000e+000	
4851.856	76.246	4.41E-04	1.00E-02	0	0.00000000e+000   0.0000e+000	
4854.26	76.116	4.41E-04	1.00E-02	0	0.00000000e+000   0.0000e+000	
4856.656	75.99	4.37E-04	1.00E-02	0	0.00000000e+000   0.0000e+000	
4859.058	75.863	4.06E-04	1.00E-02	0	0.00000000e+000   0.0000e+000	
4861.458	75.737	4.20E-04	1.00E-02	0	0.00000000e+000   0.0000e+000	
4863.858	75.613	4.34E-04	1.00E-02	0	0.00000000e+000   0.0000e+000	
4866.262	75.487	4.38E-04	1.00E-02	0	0.00000000e+000   0.0000e+000	
4868.659	75.363	4.13E-04	1.00E-02	0	0.00000000e+000   0.0000e+000	
4871.06	75.235	5.09E-04	1.00E-02	0	0.00000000e+000   0.0000e+000	
4873.46	75.108	4.73E-04	1.00E-02	0	0.00000000e+000   0.0000e+000	
4875.861	74.983	4.72E-04	1.00E-02	0	0.00000000e+000   0.0000e+000	
4878.267	74.858	4.27E-04	1.00E-02	0	0.00000000e+000   0.0000e+000	
4880.663	74.73	4.81E-04	1.00E-02	0	0.00000000e+000   0.0000e+000	
4883.062	74.603	4.71E-04	1.00E-02	0	0.00000000e+000   0.0000e+000	
4885.464	74.476	4.26E-04	1.00E-02	0	0.00000000e+000   0.0000e+000	
4887.867	74.35	4.46E-04	1.00E-02	0	0.00000000e+000   0.0000e+000	
4890.272	74.224	4.58E-04	1.00E-02	0	0.00000000e+000   0.0000e+000	
4892.663	74.099	4.79E-04	1.00E-02	0	0.00000000e+000   0.0000e+000	
4895.067	73.97	4.91E-04	1.00E-02	0	0.00000000e+000   0.0000e+000	
4897.469	73.838	4.67E-04	1.00E-02	0	0.00000000e+000   0.0000e+000	
4899.865	73.706	1.45E-04	1.00E-02	0	0.00000000e+000   0.0000e+000	
4902.269	73.575	6.16E-04	1.00E-02	0	0.00000000e+000   0.0000e+000	
4904.666	73.443	5.09E-04	1.00E-02	0	0.00000000e+000   0.0000e+000	
4907.066	73.312	4.97E-04	1.00E-02	0	0.00000000e+000   0.0000e+000	
4909.466	73.181	5.20E-04	1.00E-02	0	0.00000000e+000   0.0000e+000	
4911.867	73.05	4.89E-04	1.00E-02	0	0.00000000e+000   0.0000e+000	
4914.27	72.92	5.22E-04	1.00E-02	0	0.00000000e+000   0.0000e+000	
4916.668	72.789	4.71E-04	1.00E-02	0	0.00000000e+000   0.0000e+000	
4919.068	72.658	5.41E-04	1.00E-02	0	0.00000000e+000   0.0000e+000	
4921.469	72.526	5.26E-04	1.00E-02	0	0.00000000e+000   0.0000e+000	
4923.869	72.395	4.90E-04	1.00E-02	0	0.00000000e+000   0.0000e+000	
4926.273	72.263	4.97E-04	1.00E-02	0	0.00000000e+000   0.0000e+000	
4928.673	72.131	5.10E-04	1.00E-02	0	0.00000000e+000   0.0000e+000	
4931.071	72.002	4.37E-04	1.00E-02	0	0.00000000e+000   0.0000e+000	
4933.474	71.869	4.57E-04	1.00E-02	0	0.00000000e+000   0.0000e+000	
4935.874	71.737	4.53E-04	1.00E-02	0	0.00000000e+000   0.0000e+000	
4938.279	71.605	4.81E-04	1.00E-02	0	0.00000000e+000   0.0000e+000	
4940.678	71.475	4.86E-04	1.00E-02	0	0.00000000e+000   0.0000e+000	
4943.074	71.345	5.69E-04	1.00E-02	0	0.00000000e+000   0.0000e+000	
4945.475	71.211	5.47E-04	1.00E-02	0	0.00000000e+000   0.0000e+000	
4947.878	71.078	5.17E-04	1.00E-02	0	0.00000000e+000   0.0000e+000	
4950.278	70.945	4.83E-04	1.00E-02	0	0.00000000e+000   0.0000e+000	
4952.675	70.815	5.43E-04	1.00E-02	0	0.00000000e+000   0.0000e+000	
4955.076	70.681	4.56E-04	1.00E-02	0	0.00000000e+000   0.0000e+000	
4957.477	70.55	4.82E-04	1.00E-02	0	0.00000000e+000   0.0000e+000	
4959.876	70.419	5.12E-04	1.00E-02	0	0.00000000e+000   0.0000e+000	
4962.279	70.286	5.49E-04	1.00E-02	0	0.00000000e+000   0.0000e+000	
4964.677	70.154	5.73E-04	1.00E-02	0	0.00000000e+000   0.0000e+000	
4967.077	70.023	5.56E-04	1.00E-02	0	0.00000000e+000   0.0000e+000	
4969.478	69.889	5.59E-04	1.00E-02	0	0.00000000e+000   0.0000e+000	
4971.878	69.761	5.18E-04	1.00E-02	0	0.00000000e+000   0.0000e+000	
4974.282	69.629	5.56E-04	1.00E-02	0	0.00000000e+000   0.0000e+000	
4976.68	69.499	5.28E-04	1.00E-02	0	0.00000000e+000   0.0000e+000	
4979.079	69.37	5.69E-04	1.00E-02	0	0.00000000e+000   0.0000e+000	
4981.482	69.239	5.54E-04	1.00E-02	0	0.00000000e+000   0.0000e+000	
4983.882	69.109	4.84E-04	1.00E-02	0	0.00000000e+000   0.0000e+000	
4986.288	68.98	4.84E-04	1.00E-02	0	0.00000000e+000   0.0000e+000	
4988.687	68.849	5.16E-04	1.00E-02	0	0.00000000e+000   0.0000e+000	
4991.083	68.722	5.65E-04	1.00E-02	0	0.00000000e+000   0.0000e+000	
4993.484	68.592	5.79E-04	1.00E-02	0	0.00000000e+000   0.0000e+000	
4995.886	68.464	5.43E-04	1.00E-02	0	0.00000000e+000   0.0000e+000	
4998.287	68.332	5.25E-04	1.00E-02	0	0.00000000e+000   0.0000e+000	
5000.684	68.204	5.41E-04	1.00E-02	0	0.00000000e+000   0.0000e+000	
5003.084	68.075	5.18E-04	1.00E-02	0	0.00000000e+000   0.0000e+000	
5005.485	67.947	5.78E-04	1.00E-02	0	0.00000000e+000   0.0000e+000	
5007.885	67.808	5.48E-04	1.00E-02	0	0.00000000e+000   0.0000e+000	
5010.289	67.674	5.00E-04	1.00E-02	0	0.00000000e+000   0.0000e+000	
5012.685	67.541	5.71E-04	1.00E-02	0	0.00000000e+000   0.0000e+000	
5015.086	67.406	5.80E-04	1.00E-02	0	0.00000000e+000   0.0000e+000	
5017.487	67.271	6.13E-04	1.00E-02	0	0.00000000e+000   0.0000e+000	
5019.887	67.136	6.03E-04	1.00E-02	0	0.00000000e+000   0.0000e+000	
5022.291	67.002	5.42E-04	1.00E-02	0	0.00000000e+000   0.0000e+000	
5024.688	66.876	6.06E-04	1.00E-02	0	0.00000000e+000   0.0000e+000	
5027.091	66.752	5.83E-04	1.00E-02	0	0.00000000e+000   0.0000e+000	
5029.489	66.626	6.46E-04	1.00E-02	0	0.00000000e+000   0.0000e+000	
5031.891	66.501	5.65E-04	1.00E-02	0	0.00000000e+000   0.0000e+000	
5034.296	66.376	5.86E-04	1.00E-02	0	0.00000000e+000   0.0000e+000	
5036.694	66.251	6.35E-04	1.00E-02	0	0.00000000e+000   0.0000e+000	
5039.097	66.127	5.96E-04	1.00E-02	0	0.00000000e+000   0.0000e+000	
5041.493	66.005	6.56E-04	1.00E-02	0	0.00000000e+000   0.0000e+000	
5043.893	65.882	6.46E-04	1.00E-02	0	0.00000000e+000   0.0000e+000	
5046.3	65.757	5.92E-04	1.00E-02	0	0.00000000e+000   0.0000e+000	
5048.692	65.634	6.18E-04	1.00E-02	0	0.00000000e+000   0.0000e+000	
5051.094	65.511	6.05E-04	1.00E-02	0	0.00000000e+000   0.0000e+000	
5053.494	65.386	6.05E-04	1.00E-02	0	0.00000000e+000   0.0000e+000	
5055.893	65.264	6.02E-04	1.00E-02	0	0.00000000e+000   0.0000e+000	
5058.298	65.142	5.98E-04	1.00E-02	0	0.00000000e+000   0.0000e+000	
5060.695	65.02	5.84E-04	1.00E-02	0	0.00000000e+000   0.0000e+000	
5063.095	64.898	6.04E-04	1.00E-02	0	0.00000000e+000   0.0000e+000	
5065.495	64.776	6.14E-04	1.00E-02	0	0.00000000e+000   0.0000e+000	
5067.895	64.654	5.99E-04	1.00E-02	0	0.00000000e+000   0.0000e+000	
5070.3	64.531	6.28E-04	1.00E-02	0	0.00000000e+000   0.0000e+000	
5072.696	64.412	6.67E-04	1.00E-02	0	0.00000000e+000   0.0000e+000	
5075.099	64.29	5.70E-04	1.00E-02	0	0.00000000e+000   0.0000e+000	
5077.499	64.167	6.22E-04	1.00E-02	0	0.00000000e+000   0.0000e+000	
5079.9	64.045	5.76E-04	1.00E-02	0	0.00000000e+000   0.0000e+000	
5082.303	63.924	5.85E-04	1.00E-02	0	0.00000000e+000   0.0000e+000	
5084.702	63.803	6.18E-04	1.00E-02	0	0.00000000e+000   0.0000e+000	
5087.105	63.683	6.00E-04	1.00E-02	0	0.00000000e+000   0.0000e+000	
5089.508	63.564	5.79E-04	1.00E-02	0	0.00000000e+000   0.0000e+000	
5091.902	63.445	6.62E-04	1.00E-02	0	0.00000000e+000   0.0000e+000	
5094.308	63.323	6.29E-04	1.00E-02	0	0.00000000e+000   0.0000e+000	
5096.701	63.203	5.69E-04	1.00E-02	0	0.00000000e+000   0.0000e+000	
5099.101	63.082	5.62E-04	1.00E-02	0	0.00000000e+000   0.0000e+000	
5101.501	62.96	6.07E-04	1.00E-02	0	0.00000000e+000   0.0000e+000	
5103.903	62.833	5.64E-04	1.00E-02	0	0.00000000e+000   0.0000e+000	
5106.307	62.706	5.48E-04	1.00E-02	0	0.00000000e+000   0.0000e+000	
5108.704	62.577	5.52E-04	1.00E-02	0	0.00000000e+000   0.0000e+000	
5111.104	62.45	6.75E-04	1.00E-02	0	0.00000000e+000   0.0000e+000	
5113.504	62.323	6.55E-04	1.00E-02	0	0.00000000e+000   0.0000e+000	
5115.904	62.196	6.43E-04	1.00E-02	0	0.00000000e+000   0.0000e+000	
5118.308	62.067	7.41E-04	1.00E-02	0	0.00000000e+000   0.0000e+000	
5120.706	61.947	6.23E-04	1.00E-02	0	0.00000000e+000   0.0000e+000	
5123.107	61.826	7.10E-04	1.00E-02	0	0.00000000e+000   0.0000e+000	
5125.507	61.706	6.38E-04	1.00E-02	0	0.00000000e+000   0.0000e+000	
5127.909	61.586	5.82E-04	1.00E-02	0	0.00000000e+000   0.0000e+000	
5130.312	61.465	6.11E-04	1.00E-02	0	0.00000000e+000   0.0000e+000	
5132.711	61.348	6.08E-04	1.00E-02	0	0.00000000e+000   0.0000e+000	
5135.113	61.228	6.28E-04	1.00E-02	0	0.00000000e+000   0.0000e+000	
5137.516	61.109	5.77E-04	1.00E-02	0	0.00000000e+000   0.0000e+000	
5139.911	60.988	5.71E-04	1.00E-02	0	0.00000000e+000   0.0000e+000	
5142.317	60.871	5.64E-04	1.00E-02	0	0.00000000e+000   0.0000e+000	
5144.715	60.75	4.89E-04	1.00E-02	0	0.00000000e+000   0.0000e+000	
5147.111	60.632	5.47E-04	1.00E-02	0	0.00000000e+000   0.0000e+000	
5149.511	60.511	5.60E-04	1.00E-02	0	0.00000000e+000   0.0000e+000	
5151.912	60.389	5.68E-04	1.00E-02	0	0.00000000e+000   0.0000e+000	
5154.315	60.271	5.88E-04	1.00E-02	0	0.00000000e+000   0.0000e+000	
5156.713	60.149	5.11E-04	1.00E-02	0	0.00000000e+000   0.0000e+000	
5159.113	60.029	6.57E-04	1.00E-02	0	0.00000000e+000   0.0000e+000	
5161.513	59.901	5.34E-04	1.00E-02	0	0.00000000e+000   0.0000e+000	
5163.914	59.774	5.76E-04	1.00E-02	0	0.00000000e+000   0.0000e+000	
5166.318	59.645	5.65E-04	1.00E-02	0	0.00000000e+000   0.0000e+000	
5168.714	59.515	5.15E-04	1.00E-02	0	0.00000000e+000   0.0000e+000	
5171.114	59.389	5.82E-04	1.00E-02	0	0.00000000e+000   0.0000e+000	
5173.517	59.261	6.82E-04	1.00E-02	0	0.00000000e+000   0.0000e+000	
5175.919	59.129	4.87E-04	1.00E-02	0	0.00000000e+000   0.0000e+000	
5178.321	59.003	6.42E-04	1.00E-02	0	0.00000000e+000   0.0000e+000	
5180.717	58.874	5.29E-04	1.00E-02	0	0.00000000e+000   0.0000e+000	
5183.12	58.745	6.30E-04	1.00E-02	0	0.00000000e+000   0.0000e+000	
5185.522	58.617	5.87E-04	1.00E-02	0	0.00000000e+000   0.0000e+000	
5187.925	58.488	5.64E-04	1.00E-02	0	0.00000000e+000   0.0000e+000	
5190.322	58.363	5.74E-04	1.00E-02	0	0.00000000e+000   0.0000e+000	
5192.722	58.233	6.00E-04	1.00E-02	0	0.00000000e+000   0.0000e+000	
5195.12	58.105	5.27E-04	1.00E-02	0	0.00000000e+000   0.0000e+000	
5197.52	57.976	5.97E-04	1.00E-02	0	0.00000000e+000   0.0000e+000	
5199.92	57.849	5.74E-04	1.00E-02	0	0.00000000e+000   0.0000e+000	
5202.324	57.719	5.49E-04	1.00E-02	0	0.00000000e+000   0.0000e+000	
5204.721	57.593	5.35E-04	1.00E-02	0	0.00000000e+000   0.0000e+000	
5207.121	57.462	6.21E-04	1.00E-02	0	0.00000000e+000   0.0000e+000	
5209.523	57.333	5.68E-04	1.00E-02	0	0.00000000e+000   0.0000e+000	
5211.923	57.205	6.11E-04	1.00E-02	0	0.00000000e+000   0.0000e+000	
5214.326	57.076	6.09E-04	1.00E-02	0	0.00000000e+000   0.0000e+000	
5216.723	56.947	5.82E-04	1.00E-02	0	0.00000000e+000   0.0000e+000	
5219.124	56.82	5.91E-04	1.00E-02	0	0.00000000e+000   0.0000e+000	
5221.526	56.69	5.61E-04	1.00E-02	0	0.00000000e+000   0.0000e+000	
5223.925	56.563	5.46E-04	1.00E-02	0	0.00000000e+000   0.0000e+000	
5226.331	56.434	6.04E-04	1.00E-02	0	0.00000000e+000   0.0000e+000	
5228.728	56.307	6.91E-04	1.00E-02	0	0.00000000e+000   0.0000e+000	
5231.13	56.179	6.15E-04	1.00E-02	0	0.00000000e+000   0.0000e+000	
5233.532	56.048	5.91E-04	1.00E-02	0	0.00000000e+000   0.0000e+000	
5235.928	55.923	5.51E-04	1.00E-02	0	0.00000000e+000   0.0000e+000	
5238.333	55.793	5.59E-04	1.00E-02	0	0.00000000e+000   0.0000e+000	
5240.732	55.663	5.60E-04	1.00E-02	0	0.00000000e+000   0.0000e+000	
5243.128	55.534	6.59E-04	1.00E-02	0	0.00000000e+000   0.0000e+000	
5245.529	55.405	6.67E-04	1.00E-02	0	0.00000000e+000   0.0000e+000	
5247.93	55.277	5.35E-04	1.00E-02	0	0.00000000e+000   0.0000e+000	
5250.333	55.148	6.12E-04	1.00E-02	0	0.00000000e+000   0.0000e+000	
5252.73	55.018	5.71E-04	1.00E-02	0	0.00000000e+000   0.0000e+000	
5255.13	54.897	6.00E-04	1.00E-02	0	0.00000000e+000   0.0000e+000	
5257.531	54.775	5.93E-04	1.00E-02	0	0.00000000e+000   0.0000e+000	
5259.931	54.655	6.09E-04	1.00E-02	0	0.00000000e+000   0.0000e+000	
5262.336	54.535	5.45E-04	1.00E-02	0	0.00000000e+000   0.0000e+000	
5264.733	54.415	5.44E-04	1.00E-02	0	0.00000000e+000   0.0000e+000	
5267.135	54.294	6.48E-04	1.00E-02	0	0.00000000e+000   0.0000e+000	
5269.533	54.173	5.93E-04	1.00E-02	0	0.00000000e+000   0.0000e+000	
5271.936	54.053	5.71E-04	1.00E-02	0	0.00000000e+000   0.0000e+000	
5274.338	53.929	4.88E-04	1.00E-02	0	0.00000000e+000   0.0000e+000	
5276.737	53.801	5.81E-04	1.00E-02	0	0.00000000e+000   0.0000e+000	
5279.141	53.673	5.42E-04	1.00E-02	0	0.00000000e+000   0.0000e+000	
5281.544	53.547	5.37E-04	1.00E-02	0	0.00000000e+000   0.0000e+000	
5283.938	53.418	5.31E-04	1.00E-02	0	0.00000000e+000   0.0000e+000	
5286.344	53.29	5.98E-04	1.00E-02	0	0.00000000e+000   0.0000e+000	
5288.737	53.164	5.20E-04	1.00E-02	0	0.00000000e+000   0.0000e+000	
5291.137	53.033	4.87E-04	1.00E-02	0	0.00000000e+000   0.0000e+000	
5293.538	52.905	6.48E-04	1.00E-02	0	0.00000000e+000   0.0000e+000	
5295.939	52.775	5.69E-04	1.00E-02	0	0.00000000e+000   0.0000e+000	
5298.343	52.643	-3.36E-04	1.00E-02	0	0.00000000e+000   0.0000e+000	
5300.74	52.514	2.48E-04	1.00E-02	0	0.00000000e+000   0.0000e+000	
5303.139	52.381	6.94E-04	1.00E-02	0	0.00000000e+000   0.0000e+000	
5305.541	52.25	8.80E-04	1.00E-02	0	0.00000000e+000   0.0000e+000	
5307.94	52.12	4.64E-04	1.00E-02	0	0.00000000e+000   0.0000e+000	
5310.344	51.987	5.14E-04	1.00E-02	0	0.00000000e+000   0.0000e+000	
5312.741	51.852	5.70E-04	1.00E-02	0	0.00000000e+000   0.0000e+000	
5315.144	51.718	5.68E-04	1.00E-02	0	0.00000000e+000   0.0000e+000	
5317.544	51.584	5.82E-04	1.00E-02	0	0.00000000e+000   0.0000e+000	
5319.946	51.448	4.47E-04	1.00E-02	0	0.00000000e+000   0.0000e+000	
5322.349	51.313	3.09E-04	1.00E-02	0	0.00000000e+000   0.0000e+000	
5324.748	51.176	2.30E-04	1.00E-02	0	0.00000000e+000   0.0000e+000	
5327.151	51.041	5.06E-04	1.00E-02	0	0.00000000e+000   0.0000e+000	
5329.553	50.905	5.26E-04	1.00E-02	0	0.00000000e+000   0.0000e+000	
5331.948	50.768	9.62E-06	1.00E-02	0	0.00000000e+000   0.0000e+000	
5334.354	50.629	4.80E-04	1.00E-02	0	0.00000000e+000   0.0000e+000	
5336.747	50.487	5.05E-04	1.00E-02	0	0.00000000e+000   0.0000e+000	
5339.148	50.346	4.46E-04	1.00E-02	0	0.00000000e+000   0.0000e+000	
5341.548	50.204	5.04E-04	1.00E-02	0	0.00000000e+000   0.0000e+000	
5343.948	50.061	2.36E-04	1.00E-02	0	0.00000000e+000   0.0000e+000	
5346.352	49.92	2.81E-04	1.00E-02	0	0.00000000e+000   0.0000e+000	
5348.749	49.778	5.86E-04	1.00E-02	0	0.00000000e+000   0.0000e+000	
5351.149	49.638	6.45E-04	1.00E-02	0	0.00000000e+000   0.0000e+000	
5353.55	49.498	5.90E-04	1.00E-02	0	0.00000000e+000   0.0000e+000	
5355.95	49.36	4.11E-04	1.00E-02	0	0.00000000e+000   0.0000e+000	
