[C:\Users\Physics-Lab\Desktop\Programs\Hyun\R-Tmeasurement-4pt_325.exe 1 1 221125_ht.dat 1e-2 50 300 3 ]

Time(sec)	Temperature(K)	     Resistance(Ohm)	    Current(A) TempError(K) ResError(Ohm) CurrError(A)
2.365	47.733	8.18E-04	1.00E-02	0	0.00000000e+000   0.0000e+000	
4.75	47.502	3.63E-03	1.00E-02	0	0.00000000e+000   0.0000e+000	
7.139	47.376	-2.08E-03	1.00E-02	0	0.00000000e+000   0.0000e+000	
9.54	47.294	8.24E-04	1.00E-02	0	0.00000000e+000   0.0000e+000	
11.94	47.237	9.10E-04	1.00E-02	0	0.00000000e+000   0.0000e+000	
14.34	47.195	7.61E-04	1.00E-02	0	0.00000000e+000   0.0000e+000	
16.744	47.165	-9.13E-04	1.00E-02	0	0.00000000e+000   0.0000e+000	
19.143	47.149	1.25E-03	1.00E-02	0	0.00000000e+000   0.0000e+000	
21.543	47.14	1.71E-03	1.00E-02	0	0.00000000e+000   0.0000e+000	
23.944	47.145	1.25E-03	1.00E-02	0	0.00000000e+000   0.0000e+000	
26.343	47.153	1.35E-03	1.00E-02	0	0.00000000e+000   0.0000e+000	
28.747	47.171	1.60E-03	1.00E-02	0	0.00000000e+000   0.0000e+000	
31.143	47.2	3.33E-03	1.00E-02	0	0.00000000e+000   0.0000e+000	
33.546	47.233	1.08E-03	1.00E-02	0	0.00000000e+000   0.0000e+000	
35.946	47.274	1.36E-03	1.00E-02	0	0.00000000e+000   0.0000e+000	
38.348	47.318	1.28E-03	1.00E-02	0	0.00000000e+000   0.0000e+000	
40.751	47.369	1.22E-03	1.00E-02	0	0.00000000e+000   0.0000e+000	
43.15	47.426	9.58E-04	1.00E-02	0	0.00000000e+000   0.0000e+000	
45.552	47.491	1.39E-03	1.00E-02	0	0.00000000e+000   0.0000e+000	
47.955	47.561	1.01E-03	1.00E-02	0	0.00000000e+000   0.0000e+000	
50.349	47.636	1.12E-03	1.00E-02	0	0.00000000e+000   0.0000e+000	
52.756	47.718	1.26E-03	1.00E-02	0	0.00000000e+000   0.0000e+000	
55.149	47.802	1.56E-03	1.00E-02	0	0.00000000e+000   0.0000e+000	
57.55	47.891	1.25E-03	1.00E-02	0	0.00000000e+000   0.0000e+000	
59.951	47.984	1.14E-03	1.00E-02	0	0.00000000e+000   0.0000e+000	
62.35	48.077	1.45E-03	1.00E-02	0	0.00000000e+000   0.0000e+000	
64.753	48.172	9.49E-04	1.00E-02	0	0.00000000e+000   0.0000e+000	
67.151	48.272	9.82E-04	1.00E-02	0	0.00000000e+000   0.0000e+000	
69.551	48.374	1.35E-03	1.00E-02	0	0.00000000e+000   0.0000e+000	
71.952	48.477	1.23E-03	1.00E-02	0	0.00000000e+000   0.0000e+000	
74.352	48.586	1.05E-03	1.00E-02	0	0.00000000e+000   0.0000e+000	
76.757	48.694	1.29E-03	1.00E-02	0	0.00000000e+000   0.0000e+000	
79.153	48.802	1.31E-03	1.00E-02	0	0.00000000e+000   0.0000e+000	
81.553	48.909	1.09E-03	1.00E-02	0	0.00000000e+000   0.0000e+000	
83.954	49.016	1.20E-03	1.00E-02	0	0.00000000e+000   0.0000e+000	
86.356	49.122	1.38E-03	1.00E-02	0	0.00000000e+000   0.0000e+000	
88.759	49.233	1.11E-03	1.00E-02	0	0.00000000e+000   0.0000e+000	
91.158	49.342	1.30E-03	1.00E-02	0	0.00000000e+000   0.0000e+000	
93.558	49.453	1.31E-03	1.00E-02	0	0.00000000e+000   0.0000e+000	
95.96	49.565	9.07E-04	1.00E-02	0	0.00000000e+000   0.0000e+000	
98.386	49.677	1.15E-03	1.00E-02	0	0.00000000e+000   0.0000e+000	
100.762	49.672	1.23E-03	1.00E-02	0	0.00000000e+000   0.0000e+000	
103.159	49.755	1.48E-03	1.00E-02	0	0.00000000e+000   0.0000e+000	
105.563	49.875	8.83E-04	1.00E-02	0	0.00000000e+000   0.0000e+000	
107.959	49.998	1.27E-03	1.00E-02	0	0.00000000e+000   0.0000e+000	
110.36	50.121	1.25E-03	1.00E-02	0	0.00000000e+000   0.0000e+000	
112.762	50.244	1.12E-03	1.00E-02	0	0.00000000e+000   0.0000e+000	
115.161	50.364	1.26E-03	1.00E-02	0	0.00000000e+000   0.0000e+000	
117.561	50.483	1.33E-03	1.00E-02	0	0.00000000e+000   0.0000e+000	
119.961	50.599	1.26E-03	1.00E-02	0	0.00000000e+000   0.0000e+000	
122.363	50.716	6.99E-04	1.00E-02	0	0.00000000e+000   0.0000e+000	
124.766	50.83	1.30E-03	1.00E-02	0	0.00000000e+000   0.0000e+000	
127.163	50.946	1.17E-03	1.00E-02	0	0.00000000e+000   0.0000e+000	
129.563	51.061	1.33E-03	1.00E-02	0	0.00000000e+000   0.0000e+000	
131.964	51.173	9.39E-04	1.00E-02	0	0.00000000e+000   0.0000e+000	
134.364	51.285	1.26E-03	1.00E-02	0	0.00000000e+000   0.0000e+000	
136.768	51.399	1.14E-03	1.00E-02	0	0.00000000e+000   0.0000e+000	
139.165	51.513	1.15E-03	1.00E-02	0	0.00000000e+000   0.0000e+000	
141.568	51.623	1.16E-03	1.00E-02	0	0.00000000e+000   0.0000e+000	
143.97	51.737	1.13E-03	1.00E-02	0	0.00000000e+000   0.0000e+000	
146.373	51.846	1.17E-03	1.00E-02	0	0.00000000e+000   0.0000e+000	
148.771	51.961	1.16E-03	1.00E-02	0	0.00000000e+000   0.0000e+000	
151.169	52.071	1.30E-03	1.00E-02	0	0.00000000e+000   0.0000e+000	
153.567	52.183	1.09E-03	1.00E-02	0	0.00000000e+000   0.0000e+000	
155.967	52.296	1.24E-03	1.00E-02	0	0.00000000e+000   0.0000e+000	
158.368	52.407	1.26E-03	1.00E-02	0	0.00000000e+000   0.0000e+000	
160.771	52.516	1.26E-03	1.00E-02	0	0.00000000e+000   0.0000e+000	
163.169	52.624	1.12E-03	1.00E-02	0	0.00000000e+000   0.0000e+000	
165.57	52.736	1.03E-03	1.00E-02	0	0.00000000e+000   0.0000e+000	
167.97	52.849	1.21E-03	1.00E-02	0	0.00000000e+000   0.0000e+000	
170.37	52.96	1.37E-03	1.00E-02	0	0.00000000e+000   0.0000e+000	
172.773	53.072	1.18E-03	1.00E-02	0	0.00000000e+000   0.0000e+000	
175.171	53.182	1.33E-03	1.00E-02	0	0.00000000e+000   0.0000e+000	
177.572	53.292	1.20E-03	1.00E-02	0	0.00000000e+000   0.0000e+000	
179.972	53.403	1.25E-03	1.00E-02	0	0.00000000e+000   0.0000e+000	
182.372	53.514	1.19E-03	1.00E-02	0	0.00000000e+000   0.0000e+000	
184.777	53.63	1.25E-03	1.00E-02	0	0.00000000e+000   0.0000e+000	
187.173	53.735	1.26E-03	1.00E-02	0	0.00000000e+000   0.0000e+000	
189.576	53.848	1.24E-03	1.00E-02	0	0.00000000e+000   0.0000e+000	
191.978	53.958	1.20E-03	1.00E-02	0	0.00000000e+000   0.0000e+000	
194.382	54.067	1.29E-03	1.00E-02	0	0.00000000e+000   0.0000e+000	
196.779	54.169	1.09E-03	1.00E-02	0	0.00000000e+000   0.0000e+000	
199.178	54.272	1.24E-03	1.00E-02	0	0.00000000e+000   0.0000e+000	
201.583	54.377	1.14E-03	1.00E-02	0	0.00000000e+000   0.0000e+000	
203.976	54.479	1.16E-03	1.00E-02	0	0.00000000e+000   0.0000e+000	
206.376	54.585	1.16E-03	1.00E-02	0	0.00000000e+000   0.0000e+000	
208.78	54.687	1.06E-03	1.00E-02	0	0.00000000e+000   0.0000e+000	
211.178	54.793	1.15E-03	1.00E-02	0	0.00000000e+000   0.0000e+000	
213.579	54.897	1.13E-03	1.00E-02	0	0.00000000e+000   0.0000e+000	
215.979	55.003	1.17E-03	1.00E-02	0	0.00000000e+000   0.0000e+000	
218.379	55.115	1.23E-03	1.00E-02	0	0.00000000e+000   0.0000e+000	
220.782	55.226	1.21E-03	1.00E-02	0	0.00000000e+000   0.0000e+000	
223.179	55.337	1.19E-03	1.00E-02	0	0.00000000e+000   0.0000e+000	
225.579	55.448	1.21E-03	1.00E-02	0	0.00000000e+000   0.0000e+000	
227.981	55.558	1.10E-03	1.00E-02	0	0.00000000e+000   0.0000e+000	
230.384	55.669	1.08E-03	1.00E-02	0	0.00000000e+000   0.0000e+000	
232.785	55.782	1.18E-03	1.00E-02	0	0.00000000e+000   0.0000e+000	
235.185	55.891	1.07E-03	1.00E-02	0	0.00000000e+000   0.0000e+000	
237.584	56.003	1.23E-03	1.00E-02	0	0.00000000e+000   0.0000e+000	
239.987	56.116	1.16E-03	1.00E-02	0	0.00000000e+000   0.0000e+000	
242.389	56.225	1.16E-03	1.00E-02	0	0.00000000e+000   0.0000e+000	
244.789	56.335	1.04E-03	1.00E-02	0	0.00000000e+000   0.0000e+000	
247.187	56.449	1.04E-03	1.00E-02	0	0.00000000e+000   0.0000e+000	
249.592	56.56	1.04E-03	1.00E-02	0	0.00000000e+000   0.0000e+000	
251.985	56.673	1.14E-03	1.00E-02	0	0.00000000e+000   0.0000e+000	
254.386	56.781	1.09E-03	1.00E-02	0	0.00000000e+000   0.0000e+000	
256.789	56.897	1.13E-03	1.00E-02	0	0.00000000e+000   0.0000e+000	
259.186	57.008	1.13E-03	1.00E-02	0	0.00000000e+000   0.0000e+000	
261.586	57.119	9.86E-04	1.00E-02	0	0.00000000e+000   0.0000e+000	
263.987	57.232	1.19E-03	1.00E-02	0	0.00000000e+000   0.0000e+000	
266.387	57.345	1.03E-03	1.00E-02	0	0.00000000e+000   0.0000e+000	
268.791	57.458	1.14E-03	1.00E-02	0	0.00000000e+000   0.0000e+000	
271.188	57.572	1.10E-03	1.00E-02	0	0.00000000e+000   0.0000e+000	
273.59	57.684	1.17E-03	1.00E-02	0	0.00000000e+000   0.0000e+000	
275.989	57.797	1.09E-03	1.00E-02	0	0.00000000e+000   0.0000e+000	
278.391	57.912	1.12E-03	1.00E-02	0	0.00000000e+000   0.0000e+000	
280.795	58.023	1.06E-03	1.00E-02	0	0.00000000e+000   0.0000e+000	
283.194	58.134	1.09E-03	1.00E-02	0	0.00000000e+000   0.0000e+000	
285.597	58.247	1.03E-03	1.00E-02	0	0.00000000e+000   0.0000e+000	
287.999	58.355	1.09E-03	1.00E-02	0	0.00000000e+000   0.0000e+000	
290.394	58.47	1.05E-03	1.00E-02	0	0.00000000e+000   0.0000e+000	
292.799	58.58	9.70E-04	1.00E-02	0	0.00000000e+000   0.0000e+000	
295.193	58.694	1.05E-03	1.00E-02	0	0.00000000e+000   0.0000e+000	
297.594	58.805	1.17E-03	1.00E-02	0	0.00000000e+000   0.0000e+000	
299.995	58.918	1.01E-03	1.00E-02	0	0.00000000e+000   0.0000e+000	
302.394	59.027	1.10E-03	1.00E-02	0	0.00000000e+000   0.0000e+000	
304.798	59.14	1.06E-03	1.00E-02	0	0.00000000e+000   0.0000e+000	
307.196	59.252	1.03E-03	1.00E-02	0	0.00000000e+000   0.0000e+000	
309.596	59.363	9.63E-04	1.00E-02	0	0.00000000e+000   0.0000e+000	
311.997	59.473	1.01E-03	1.00E-02	0	0.00000000e+000   0.0000e+000	
314.397	59.586	8.71E-04	1.00E-02	0	0.00000000e+000   0.0000e+000	
316.801	59.698	9.78E-04	1.00E-02	0	0.00000000e+000   0.0000e+000	
319.198	59.811	8.95E-04	1.00E-02	0	0.00000000e+000   0.0000e+000	
321.598	59.921	9.64E-04	1.00E-02	0	0.00000000e+000   0.0000e+000	
323.999	60.033	9.86E-04	1.00E-02	0	0.00000000e+000   0.0000e+000	
326.402	60.139	9.59E-04	1.00E-02	0	0.00000000e+000   0.0000e+000	
328.804	60.244	9.27E-04	1.00E-02	0	0.00000000e+000   0.0000e+000	
331.203	60.351	9.38E-04	1.00E-02	0	0.00000000e+000   0.0000e+000	
333.603	60.458	9.56E-04	1.00E-02	0	0.00000000e+000   0.0000e+000	
336.005	60.563	9.62E-04	1.00E-02	0	0.00000000e+000   0.0000e+000	
338.408	60.669	9.63E-04	1.00E-02	0	0.00000000e+000   0.0000e+000	
340.807	60.774	9.67E-04	1.00E-02	0	0.00000000e+000   0.0000e+000	
343.205	60.878	9.48E-04	1.00E-02	0	0.00000000e+000   0.0000e+000	
345.607	60.986	9.57E-04	1.00E-02	0	0.00000000e+000   0.0000e+000	
348.003	61.09	8.87E-04	1.00E-02	0	0.00000000e+000   0.0000e+000	
350.405	61.195	9.12E-04	1.00E-02	0	0.00000000e+000   0.0000e+000	
352.807	61.3	8.83E-04	1.00E-02	0	0.00000000e+000   0.0000e+000	
355.205	61.408	9.20E-04	1.00E-02	0	0.00000000e+000   0.0000e+000	
357.604	61.514	8.48E-04	1.00E-02	0	0.00000000e+000   0.0000e+000	
360.005	61.621	9.40E-04	1.00E-02	0	0.00000000e+000   0.0000e+000	
362.406	61.726	8.41E-04	1.00E-02	0	0.00000000e+000   0.0000e+000	
364.81	61.831	9.14E-04	1.00E-02	0	0.00000000e+000   0.0000e+000	
367.208	61.939	8.62E-04	1.00E-02	0	0.00000000e+000   0.0000e+000	
369.608	62.049	8.59E-04	1.00E-02	0	0.00000000e+000   0.0000e+000	
372.008	62.163	9.18E-04	1.00E-02	0	0.00000000e+000   0.0000e+000	
374.408	62.275	8.73E-04	1.00E-02	0	0.00000000e+000   0.0000e+000	
376.813	62.387	8.95E-04	1.00E-02	0	0.00000000e+000   0.0000e+000	
379.211	62.5	9.16E-04	1.00E-02	0	0.00000000e+000   0.0000e+000	
381.611	62.615	9.41E-04	1.00E-02	0	0.00000000e+000   0.0000e+000	
384.013	62.728	9.37E-04	1.00E-02	0	0.00000000e+000   0.0000e+000	
386.413	62.84	9.08E-04	1.00E-02	0	0.00000000e+000   0.0000e+000	
388.819	62.953	8.79E-04	1.00E-02	0	0.00000000e+000   0.0000e+000	
391.218	63.064	8.40E-04	1.00E-02	0	0.00000000e+000   0.0000e+000	
393.612	63.166	8.70E-04	1.00E-02	0	0.00000000e+000   0.0000e+000	
396.015	63.275	8.34E-04	1.00E-02	0	0.00000000e+000   0.0000e+000	
398.419	63.382	8.48E-04	1.00E-02	0	0.00000000e+000   0.0000e+000	
400.815	63.487	8.89E-04	1.00E-02	0	0.00000000e+000   0.0000e+000	
403.214	63.594	8.67E-04	1.00E-02	0	0.00000000e+000   0.0000e+000	
405.614	63.701	8.60E-04	1.00E-02	0	0.00000000e+000   0.0000e+000	
408.015	63.808	8.37E-04	1.00E-02	0	0.00000000e+000   0.0000e+000	
410.415	63.915	8.43E-04	1.00E-02	0	0.00000000e+000   0.0000e+000	
412.818	64.02	8.69E-04	1.00E-02	0	0.00000000e+000   0.0000e+000	
415.215	64.128	8.22E-04	1.00E-02	0	0.00000000e+000   0.0000e+000	
417.615	64.235	8.33E-04	1.00E-02	0	0.00000000e+000   0.0000e+000	
420.017	64.341	8.10E-04	1.00E-02	0	0.00000000e+000   0.0000e+000	
422.418	64.447	7.85E-04	1.00E-02	0	0.00000000e+000   0.0000e+000	
424.821	64.553	7.59E-04	1.00E-02	0	0.00000000e+000   0.0000e+000	
427.218	64.659	7.86E-04	1.00E-02	0	0.00000000e+000   0.0000e+000	
429.62	64.767	7.54E-04	1.00E-02	0	0.00000000e+000   0.0000e+000	
432.019	64.873	7.86E-04	1.00E-02	0	0.00000000e+000   0.0000e+000	
434.419	64.979	7.36E-04	1.00E-02	0	0.00000000e+000   0.0000e+000	
436.825	65.086	7.96E-04	1.00E-02	0	0.00000000e+000   0.0000e+000	
439.225	65.193	7.50E-04	1.00E-02	0	0.00000000e+000   0.0000e+000	
441.627	65.298	7.95E-04	1.00E-02	0	0.00000000e+000   0.0000e+000	
444.021	65.403	8.13E-04	1.00E-02	0	0.00000000e+000   0.0000e+000	
446.424	65.511	8.17E-04	1.00E-02	0	0.00000000e+000   0.0000e+000	
448.83	65.618	7.88E-04	1.00E-02	0	0.00000000e+000   0.0000e+000	
451.223	65.727	8.29E-04	1.00E-02	0	0.00000000e+000   0.0000e+000	
453.623	65.837	8.44E-04	1.00E-02	0	0.00000000e+000   0.0000e+000	
456.024	65.944	7.76E-04	1.00E-02	0	0.00000000e+000   0.0000e+000	
458.424	66.054	7.46E-04	1.00E-02	0	0.00000000e+000   0.0000e+000	
460.828	66.163	7.43E-04	1.00E-02	0	0.00000000e+000   0.0000e+000	
463.225	66.273	8.15E-04	1.00E-02	0	0.00000000e+000   0.0000e+000	
465.625	66.383	7.66E-04	1.00E-02	0	0.00000000e+000   0.0000e+000	
468.025	66.493	8.26E-04	1.00E-02	0	0.00000000e+000   0.0000e+000	
470.426	66.602	7.86E-04	1.00E-02	0	0.00000000e+000   0.0000e+000	
472.83	66.708	8.24E-04	1.00E-02	0	0.00000000e+000   0.0000e+000	
475.228	66.82	8.35E-04	1.00E-02	0	0.00000000e+000   0.0000e+000	
477.628	66.927	7.58E-04	1.00E-02	0	0.00000000e+000   0.0000e+000	
480.03	67.037	7.44E-04	1.00E-02	0	0.00000000e+000   0.0000e+000	
482.429	67.151	7.89E-04	1.00E-02	0	0.00000000e+000   0.0000e+000	
484.835	67.265	8.07E-04	1.00E-02	0	0.00000000e+000   0.0000e+000	
487.234	67.381	7.91E-04	1.00E-02	0	0.00000000e+000   0.0000e+000	
489.637	67.493	7.91E-04	1.00E-02	0	0.00000000e+000   0.0000e+000	
492.032	67.607	7.62E-04	1.00E-02	0	0.00000000e+000   0.0000e+000	
494.434	67.722	7.92E-04	1.00E-02	0	0.00000000e+000   0.0000e+000	
496.834	67.836	7.74E-04	1.00E-02	0	0.00000000e+000   0.0000e+000	
499.231	67.952	7.63E-04	1.00E-02	0	0.00000000e+000   0.0000e+000	
501.632	68.059	7.49E-04	1.00E-02	0	0.00000000e+000   0.0000e+000	
504.033	68.168	4.65E-04	1.00E-02	0	0.00000000e+000   0.0000e+000	
506.432	68.275	4.86E-04	1.00E-02	0	0.00000000e+000   0.0000e+000	
508.837	68.384	5.90E-04	1.00E-02	0	0.00000000e+000   0.0000e+000	
511.234	68.49	5.68E-04	1.00E-02	0	0.00000000e+000   0.0000e+000	
513.634	68.599	5.48E-04	1.00E-02	0	0.00000000e+000   0.0000e+000	
516.034	68.707	5.65E-04	1.00E-02	0	0.00000000e+000   0.0000e+000	
518.435	68.813	6.51E-04	1.00E-02	0	0.00000000e+000   0.0000e+000	
520.839	68.919	5.32E-04	1.00E-02	0	0.00000000e+000   0.0000e+000	
523.237	69.028	6.18E-04	1.00E-02	0	0.00000000e+000   0.0000e+000	
525.637	69.136	5.80E-04	1.00E-02	0	0.00000000e+000   0.0000e+000	
528.039	69.244	6.12E-04	1.00E-02	0	0.00000000e+000   0.0000e+000	
530.439	69.351	5.68E-04	1.00E-02	0	0.00000000e+000   0.0000e+000	
532.845	69.459	6.08E-04	1.00E-02	0	0.00000000e+000   0.0000e+000	
535.244	69.567	6.54E-04	1.00E-02	0	0.00000000e+000   0.0000e+000	
537.647	69.673	6.16E-04	1.00E-02	0	0.00000000e+000   0.0000e+000	
540.041	69.78	6.71E-04	1.00E-02	0	0.00000000e+000   0.0000e+000	
542.445	69.887	5.88E-04	1.00E-02	0	0.00000000e+000   0.0000e+000	
544.844	69.995	5.72E-04	1.00E-02	0	0.00000000e+000   0.0000e+000	
547.241	70.102	6.17E-04	1.00E-02	0	0.00000000e+000   0.0000e+000	
549.642	70.21	6.17E-04	1.00E-02	0	0.00000000e+000   0.0000e+000	
552.043	70.318	6.35E-04	1.00E-02	0	0.00000000e+000   0.0000e+000	
554.443	70.423	6.40E-04	1.00E-02	0	0.00000000e+000   0.0000e+000	
556.846	70.531	5.59E-04	1.00E-02	0	0.00000000e+000   0.0000e+000	
559.243	70.636	4.77E-04	1.00E-02	0	0.00000000e+000   0.0000e+000	
561.644	70.745	4.95E-04	1.00E-02	0	0.00000000e+000   0.0000e+000	
564.045	70.853	4.75E-04	1.00E-02	0	0.00000000e+000   0.0000e+000	
566.445	70.96	5.02E-04	1.00E-02	0	0.00000000e+000   0.0000e+000	
568.849	71.068	4.67E-04	1.00E-02	0	0.00000000e+000   0.0000e+000	
571.248	71.178	4.96E-04	1.00E-02	0	0.00000000e+000   0.0000e+000	
573.647	71.287	4.91E-04	1.00E-02	0	0.00000000e+000   0.0000e+000	
576.047	71.399	4.81E-04	1.00E-02	0	0.00000000e+000   0.0000e+000	
578.451	71.506	3.98E-04	1.00E-02	0	0.00000000e+000   0.0000e+000	
580.856	71.619	4.48E-04	1.00E-02	0	0.00000000e+000   0.0000e+000	
583.255	71.726	4.76E-04	1.00E-02	0	0.00000000e+000   0.0000e+000	
585.649	71.835	4.59E-04	1.00E-02	0	0.00000000e+000   0.0000e+000	
588.052	71.947	4.60E-04	1.00E-02	0	0.00000000e+000   0.0000e+000	
590.454	72.059	4.35E-04	1.00E-02	0	0.00000000e+000   0.0000e+000	
592.852	72.172	4.55E-04	1.00E-02	0	0.00000000e+000   0.0000e+000	
595.25	72.28	4.44E-04	1.00E-02	0	0.00000000e+000   0.0000e+000	
597.65	72.395	3.87E-04	1.00E-02	0	0.00000000e+000   0.0000e+000	
600.051	72.504	4.71E-04	1.00E-02	0	0.00000000e+000   0.0000e+000	
602.451	72.616	4.06E-04	1.00E-02	0	0.00000000e+000   0.0000e+000	
604.855	72.728	4.55E-04	1.00E-02	0	0.00000000e+000   0.0000e+000	
607.252	72.839	4.73E-04	1.00E-02	0	0.00000000e+000   0.0000e+000	
609.652	72.95	4.84E-04	1.00E-02	0	0.00000000e+000   0.0000e+000	
612.053	73.06	4.50E-04	1.00E-02	0	0.00000000e+000   0.0000e+000	
614.454	73.171	4.34E-04	1.00E-02	0	0.00000000e+000   0.0000e+000	
616.857	73.282	4.15E-04	1.00E-02	0	0.00000000e+000   0.0000e+000	
619.255	73.391	4.55E-04	1.00E-02	0	0.00000000e+000   0.0000e+000	
621.657	73.502	4.33E-04	1.00E-02	0	0.00000000e+000   0.0000e+000	
624.056	73.613	4.11E-04	1.00E-02	0	0.00000000e+000   0.0000e+000	
626.456	73.722	5.08E-04	1.00E-02	0	0.00000000e+000   0.0000e+000	
628.861	73.834	4.30E-04	1.00E-02	0	0.00000000e+000   0.0000e+000	
631.261	73.945	4.07E-04	1.00E-02	0	0.00000000e+000   0.0000e+000	
633.664	74.054	4.22E-04	1.00E-02	0	0.00000000e+000   0.0000e+000	
636.06	74.162	4.50E-04	1.00E-02	0	0.00000000e+000   0.0000e+000	
638.461	74.269	3.95E-04	1.00E-02	0	0.00000000e+000   0.0000e+000	
640.866	74.377	4.30E-04	1.00E-02	0	0.00000000e+000   0.0000e+000	
643.258	74.488	4.87E-04	1.00E-02	0	0.00000000e+000   0.0000e+000	
645.659	74.596	4.98E-04	1.00E-02	0	0.00000000e+000   0.0000e+000	
648.06	74.705	3.95E-04	1.00E-02	0	0.00000000e+000   0.0000e+000	
650.46	74.814	4.71E-04	1.00E-02	0	0.00000000e+000   0.0000e+000	
652.864	74.921	4.88E-04	1.00E-02	0	0.00000000e+000   0.0000e+000	
655.261	75.032	5.48E-04	1.00E-02	0	0.00000000e+000   0.0000e+000	
657.663	75.14	4.32E-04	1.00E-02	0	0.00000000e+000   0.0000e+000	
660.062	75.249	4.32E-04	1.00E-02	0	0.00000000e+000   0.0000e+000	
662.463	75.358	5.06E-04	1.00E-02	0	0.00000000e+000   0.0000e+000	
664.867	75.467	4.85E-04	1.00E-02	0	0.00000000e+000   0.0000e+000	
667.266	75.577	4.05E-04	1.00E-02	0	0.00000000e+000   0.0000e+000	
669.665	75.688	4.26E-04	1.00E-02	0	0.00000000e+000   0.0000e+000	
672.067	75.796	4.37E-04	1.00E-02	0	0.00000000e+000   0.0000e+000	
674.467	75.907	3.39E-04	1.00E-02	0	0.00000000e+000   0.0000e+000	
676.873	76.016	5.17E-04	1.00E-02	0	0.00000000e+000   0.0000e+000	
679.272	76.129	3.97E-04	1.00E-02	0	0.00000000e+000   0.0000e+000	
681.667	76.239	4.91E-04	1.00E-02	0	0.00000000e+000   0.0000e+000	
684.069	76.353	3.86E-04	1.00E-02	0	0.00000000e+000   0.0000e+000	
686.471	76.468	3.82E-04	1.00E-02	0	0.00000000e+000   0.0000e+000	
688.871	76.581	4.95E-04	1.00E-02	0	0.00000000e+000   0.0000e+000	
691.268	76.697	5.32E-04	1.00E-02	0	0.00000000e+000   0.0000e+000	
693.668	76.808	4.91E-04	1.00E-02	0	0.00000000e+000   0.0000e+000	
696.068	76.923	4.31E-04	1.00E-02	0	0.00000000e+000   0.0000e+000	
698.469	77.038	4.98E-04	1.00E-02	0	0.00000000e+000   0.0000e+000	
700.873	77.152	5.16E-04	1.00E-02	0	0.00000000e+000   0.0000e+000	
703.27	77.266	4.94E-04	1.00E-02	0	0.00000000e+000   0.0000e+000	
705.67	77.378	5.14E-04	1.00E-02	0	0.00000000e+000   0.0000e+000	
708.071	77.494	4.89E-04	1.00E-02	0	0.00000000e+000   0.0000e+000	
710.472	77.605	4.97E-04	1.00E-02	0	0.00000000e+000   0.0000e+000	
712.875	77.717	4.80E-04	1.00E-02	0	0.00000000e+000   0.0000e+000	
715.273	77.83	4.65E-04	1.00E-02	0	0.00000000e+000   0.0000e+000	
717.674	77.942	5.00E-04	1.00E-02	0	0.00000000e+000   0.0000e+000	
720.075	78.051	5.37E-04	1.00E-02	0	0.00000000e+000   0.0000e+000	
722.475	78.158	4.35E-04	1.00E-02	0	0.00000000e+000   0.0000e+000	
724.881	78.266	5.50E-04	1.00E-02	0	0.00000000e+000   0.0000e+000	
727.28	78.375	5.00E-04	1.00E-02	0	0.00000000e+000   0.0000e+000	
729.683	78.483	5.17E-04	1.00E-02	0	0.00000000e+000   0.0000e+000	
732.077	78.593	4.59E-04	1.00E-02	0	0.00000000e+000   0.0000e+000	
734.48	78.699	5.14E-04	1.00E-02	0	0.00000000e+000   0.0000e+000	
736.88	78.81	4.92E-04	1.00E-02	0	0.00000000e+000   0.0000e+000	
739.277	78.919	4.76E-04	1.00E-02	0	0.00000000e+000   0.0000e+000	
741.678	79.03	4.90E-04	1.00E-02	0	0.00000000e+000   0.0000e+000	
744.078	79.138	5.53E-04	1.00E-02	0	0.00000000e+000   0.0000e+000	
746.479	79.248	5.36E-04	1.00E-02	0	0.00000000e+000   0.0000e+000	
748.882	79.36	5.29E-04	1.00E-02	0	0.00000000e+000   0.0000e+000	
751.279	79.469	5.21E-04	1.00E-02	0	0.00000000e+000   0.0000e+000	
753.681	79.577	5.50E-04	1.00E-02	0	0.00000000e+000   0.0000e+000	
756.081	79.688	5.66E-04	1.00E-02	0	0.00000000e+000   0.0000e+000	
758.481	79.798	5.12E-04	1.00E-02	0	0.00000000e+000   0.0000e+000	
760.886	79.908	4.55E-04	1.00E-02	0	0.00000000e+000   0.0000e+000	
763.284	80.017	4.72E-04	1.00E-02	0	0.00000000e+000   0.0000e+000	
765.684	80.127	6.07E-04	1.00E-02	0	0.00000000e+000   0.0000e+000	
768.083	80.237	5.65E-04	1.00E-02	0	0.00000000e+000   0.0000e+000	
770.486	80.347	5.45E-04	1.00E-02	0	0.00000000e+000   0.0000e+000	
772.892	80.458	5.86E-04	1.00E-02	0	0.00000000e+000   0.0000e+000	
775.29	80.569	5.67E-04	1.00E-02	0	0.00000000e+000   0.0000e+000	
777.686	80.678	5.80E-04	1.00E-02	0	0.00000000e+000   0.0000e+000	
780.088	80.786	5.86E-04	1.00E-02	0	0.00000000e+000   0.0000e+000	
782.49	80.896	6.09E-04	1.00E-02	0	0.00000000e+000   0.0000e+000	
784.888	81.006	6.08E-04	1.00E-02	0	0.00000000e+000   0.0000e+000	
787.286	81.117	6.10E-04	1.00E-02	0	0.00000000e+000   0.0000e+000	
789.687	81.227	5.80E-04	1.00E-02	0	0.00000000e+000   0.0000e+000	
792.088	81.335	5.91E-04	1.00E-02	0	0.00000000e+000   0.0000e+000	
794.488	81.447	7.40E-04	1.00E-02	0	0.00000000e+000   0.0000e+000	
796.891	81.558	7.32E-04	1.00E-02	0	0.00000000e+000   0.0000e+000	
799.288	81.671	7.10E-04	1.00E-02	0	0.00000000e+000   0.0000e+000	
801.688	81.78	7.24E-04	1.00E-02	0	0.00000000e+000   0.0000e+000	
804.089	81.891	7.62E-04	1.00E-02	0	0.00000000e+000   0.0000e+000	
806.49	82.002	9.00E-04	1.00E-02	0	0.00000000e+000   0.0000e+000	
808.893	82.111	6.05E-04	1.00E-02	0	0.00000000e+000   0.0000e+000	
811.292	82.223	6.79E-04	1.00E-02	0	0.00000000e+000   0.0000e+000	
813.691	82.331	6.34E-04	1.00E-02	0	0.00000000e+000   0.0000e+000	
816.093	82.444	6.42E-04	1.00E-02	0	0.00000000e+000   0.0000e+000	
818.493	82.555	6.80E-04	1.00E-02	0	0.00000000e+000   0.0000e+000	
820.899	82.666	5.96E-04	1.00E-02	0	0.00000000e+000   0.0000e+000	
823.299	82.779	6.10E-04	1.00E-02	0	0.00000000e+000   0.0000e+000	
825.695	82.887	6.19E-04	1.00E-02	0	0.00000000e+000   0.0000e+000	
828.096	82.996	6.20E-04	1.00E-02	0	0.00000000e+000   0.0000e+000	
830.498	83.106	6.50E-04	1.00E-02	0	0.00000000e+000   0.0000e+000	
832.898	83.218	6.35E-04	1.00E-02	0	0.00000000e+000   0.0000e+000	
835.294	83.328	6.47E-04	1.00E-02	0	0.00000000e+000   0.0000e+000	
837.695	83.437	6.96E-04	1.00E-02	0	0.00000000e+000   0.0000e+000	
840.096	83.55	6.61E-04	1.00E-02	0	0.00000000e+000   0.0000e+000	
842.497	83.659	5.99E-04	1.00E-02	0	0.00000000e+000   0.0000e+000	
844.9	83.771	6.47E-04	1.00E-02	0	0.00000000e+000   0.0000e+000	
847.297	83.883	6.42E-04	1.00E-02	0	0.00000000e+000   0.0000e+000	
849.698	83.993	6.50E-04	1.00E-02	0	0.00000000e+000   0.0000e+000	
852.098	84.104	6.32E-04	1.00E-02	0	0.00000000e+000   0.0000e+000	
854.498	84.214	6.82E-04	1.00E-02	0	0.00000000e+000   0.0000e+000	
856.903	84.329	6.45E-04	1.00E-02	0	0.00000000e+000   0.0000e+000	
859.301	84.441	5.56E-04	1.00E-02	0	0.00000000e+000   0.0000e+000	
861.7	84.55	5.84E-04	1.00E-02	0	0.00000000e+000   0.0000e+000	
864.102	84.662	6.48E-04	1.00E-02	0	0.00000000e+000   0.0000e+000	
866.502	84.775	6.42E-04	1.00E-02	0	0.00000000e+000   0.0000e+000	
868.908	84.887	5.81E-04	1.00E-02	0	0.00000000e+000   0.0000e+000	
871.307	85.001	6.38E-04	1.00E-02	0	0.00000000e+000   0.0000e+000	
873.709	85.111	5.88E-04	1.00E-02	0	0.00000000e+000   0.0000e+000	
876.104	85.22	6.28E-04	1.00E-02	0	0.00000000e+000   0.0000e+000	
878.507	85.332	6.55E-04	1.00E-02	0	0.00000000e+000   0.0000e+000	
880.913	85.445	6.13E-04	1.00E-02	0	0.00000000e+000   0.0000e+000	
883.305	85.557	6.15E-04	1.00E-02	0	0.00000000e+000   0.0000e+000	
885.705	85.668	6.24E-04	1.00E-02	0	0.00000000e+000   0.0000e+000	
888.105	85.78	6.66E-04	1.00E-02	0	0.00000000e+000   0.0000e+000	
890.506	85.891	6.50E-04	1.00E-02	0	0.00000000e+000   0.0000e+000	
892.91	86.003	5.87E-04	1.00E-02	0	0.00000000e+000   0.0000e+000	
895.307	86.114	5.80E-04	1.00E-02	0	0.00000000e+000   0.0000e+000	
897.706	86.225	5.87E-04	1.00E-02	0	0.00000000e+000   0.0000e+000	
900.107	86.337	6.46E-04	1.00E-02	0	0.00000000e+000   0.0000e+000	
902.507	86.447	6.12E-04	1.00E-02	0	0.00000000e+000   0.0000e+000	
904.911	86.56	5.84E-04	1.00E-02	0	0.00000000e+000   0.0000e+000	
907.308	86.67	6.47E-04	1.00E-02	0	0.00000000e+000   0.0000e+000	
909.709	86.781	5.92E-04	1.00E-02	0	0.00000000e+000   0.0000e+000	
912.112	86.893	6.07E-04	1.00E-02	0	0.00000000e+000   0.0000e+000	
914.511	87.002	6.24E-04	1.00E-02	0	0.00000000e+000   0.0000e+000	
916.913	87.114	5.65E-04	1.00E-02	0	0.00000000e+000   0.0000e+000	
919.313	87.225	5.81E-04	1.00E-02	0	0.00000000e+000   0.0000e+000	
921.715	87.335	6.12E-04	1.00E-02	0	0.00000000e+000   0.0000e+000	
924.118	87.446	5.84E-04	1.00E-02	0	0.00000000e+000   0.0000e+000	
926.513	87.553	6.01E-04	1.00E-02	0	0.00000000e+000   0.0000e+000	
928.918	87.666	6.06E-04	1.00E-02	0	0.00000000e+000   0.0000e+000	
931.318	87.777	5.76E-04	1.00E-02	0	0.00000000e+000   0.0000e+000	
933.714	87.887	7.79E-04	1.00E-02	0	0.00000000e+000   0.0000e+000	
936.114	88	8.79E-03	1.00E-02	0	0.00000000e+000   0.0000e+000	
938.513	88.111	5.60E-03	1.00E-02	0	0.00000000e+000   0.0000e+000	
940.918	88.224	2.25E-03	1.00E-02	0	0.00000000e+000   0.0000e+000	
943.315	88.335	1.89E-03	1.00E-02	0	0.00000000e+000   0.0000e+000	
945.716	88.448	9.64E-04	1.00E-02	0	0.00000000e+000   0.0000e+000	
948.116	88.559	1.37E-03	1.00E-02	0	0.00000000e+000   0.0000e+000	
950.517	88.672	1.13E-03	1.00E-02	0	0.00000000e+000   0.0000e+000	
952.921	88.784	2.48E-03	1.00E-02	0	0.00000000e+000   0.0000e+000	
955.318	88.897	5.46E-04	1.00E-02	0	0.00000000e+000   0.0000e+000	
957.718	89.01	3.09E-04	1.00E-02	0	0.00000000e+000   0.0000e+000	
960.119	89.123	3.55E-04	1.00E-02	0	0.00000000e+000   0.0000e+000	
962.521	89.235	4.62E-04	1.00E-02	0	0.00000000e+000   0.0000e+000	
964.923	89.349	3.86E-04	1.00E-02	0	0.00000000e+000   0.0000e+000	
967.32	89.46	3.44E-04	1.00E-02	0	0.00000000e+000   0.0000e+000	
969.722	89.575	3.20E-04	1.00E-02	0	0.00000000e+000   0.0000e+000	
972.125	89.688	4.05E-04	1.00E-02	0	0.00000000e+000   0.0000e+000	
974.527	89.802	4.79E-04	1.00E-02	0	0.00000000e+000   0.0000e+000	
976.933	89.911	5.26E-04	1.00E-02	0	0.00000000e+000   0.0000e+000	
979.325	90.027	7.13E-04	1.00E-02	0	0.00000000e+000   0.0000e+000	
981.727	90.135	7.74E-04	1.00E-02	0	0.00000000e+000   0.0000e+000	
984.124	90.247	8.25E-04	1.00E-02	0	0.00000000e+000   0.0000e+000	
986.524	90.357	9.67E-04	1.00E-02	0	0.00000000e+000   0.0000e+000	
988.928	90.47	1.12E-03	1.00E-02	0	0.00000000e+000   0.0000e+000	
991.325	90.58	1.30E-03	1.00E-02	0	0.00000000e+000   0.0000e+000	
993.725	90.691	1.54E-03	1.00E-02	0	0.00000000e+000   0.0000e+000	
996.125	90.801	1.54E-03	1.00E-02	0	0.00000000e+000   0.0000e+000	
998.527	90.912	1.53E-03	1.00E-02	0	0.00000000e+000   0.0000e+000	
1000.93	91.025	1.57E-03	1.00E-02	0	0.00000000e+000   0.0000e+000	
1003.327	91.136	1.76E-03	1.00E-02	0	0.00000000e+000   0.0000e+000	
1005.727	91.248	1.58E-03	1.00E-02	0	0.00000000e+000   0.0000e+000	
1008.128	91.357	1.61E-03	1.00E-02	0	0.00000000e+000   0.0000e+000	
1010.528	91.468	1.67E-03	1.00E-02	0	0.00000000e+000   0.0000e+000	
1012.934	91.579	1.61E-03	1.00E-02	0	0.00000000e+000   0.0000e+000	
1015.33	91.69	1.47E-03	1.00E-02	0	0.00000000e+000   0.0000e+000	
1017.73	91.803	1.64E-03	1.00E-02	0	0.00000000e+000   0.0000e+000	
1020.132	91.913	1.57E-03	1.00E-02	0	0.00000000e+000   0.0000e+000	
1022.535	92.025	1.76E-03	1.00E-02	0	0.00000000e+000   0.0000e+000	
1024.941	92.137	1.74E-03	1.00E-02	0	0.00000000e+000   0.0000e+000	
1027.331	92.245	1.65E-03	1.00E-02	0	0.00000000e+000   0.0000e+000	
1029.734	92.355	1.72E-03	1.00E-02	0	0.00000000e+000   0.0000e+000	
1032.132	92.468	1.71E-03	1.00E-02	0	0.00000000e+000   0.0000e+000	
1034.533	92.582	1.75E-03	1.00E-02	0	0.00000000e+000   0.0000e+000	
1036.936	92.691	1.71E-03	1.00E-02	0	0.00000000e+000   0.0000e+000	
1039.333	92.805	1.84E-03	1.00E-02	0	0.00000000e+000   0.0000e+000	
1041.733	92.913	1.53E-03	1.00E-02	0	0.00000000e+000   0.0000e+000	
1044.134	93.027	1.78E-03	1.00E-02	0	0.00000000e+000   0.0000e+000	
1046.535	93.139	1.69E-03	1.00E-02	0	0.00000000e+000   0.0000e+000	
1048.939	93.251	1.70E-03	1.00E-02	0	0.00000000e+000   0.0000e+000	
1051.335	93.362	1.41E-03	1.00E-02	0	0.00000000e+000   0.0000e+000	
1053.736	93.473	1.86E-03	1.00E-02	0	0.00000000e+000   0.0000e+000	
1056.136	93.585	1.65E-03	1.00E-02	0	0.00000000e+000   0.0000e+000	
1058.539	93.697	1.83E-03	1.00E-02	0	0.00000000e+000   0.0000e+000	
1060.941	93.808	1.76E-03	1.00E-02	0	0.00000000e+000   0.0000e+000	
1063.34	93.921	2.03E-03	1.00E-02	0	0.00000000e+000   0.0000e+000	
1065.74	94.033	1.83E-03	1.00E-02	0	0.00000000e+000   0.0000e+000	
1068.144	94.146	1.99E-03	1.00E-02	0	0.00000000e+000   0.0000e+000	
1070.546	94.256	1.99E-03	1.00E-02	0	0.00000000e+000   0.0000e+000	
1072.945	94.366	1.89E-03	1.00E-02	0	0.00000000e+000   0.0000e+000	
1075.343	94.48	1.88E-03	1.00E-02	0	0.00000000e+000   0.0000e+000	
1077.745	94.591	1.87E-03	1.00E-02	0	0.00000000e+000   0.0000e+000	
1080.141	94.705	1.93E-03	1.00E-02	0	0.00000000e+000   0.0000e+000	
1082.541	94.817	1.95E-03	1.00E-02	0	0.00000000e+000   0.0000e+000	
1084.946	94.929	1.87E-03	1.00E-02	0	0.00000000e+000   0.0000e+000	
1087.343	95.041	1.93E-03	1.00E-02	0	0.00000000e+000   0.0000e+000	
1089.743	95.153	1.89E-03	1.00E-02	0	0.00000000e+000   0.0000e+000	
1092.144	95.263	1.99E-03	1.00E-02	0	0.00000000e+000   0.0000e+000	
1094.543	95.376	1.90E-03	1.00E-02	0	0.00000000e+000   0.0000e+000	
1096.947	95.487	1.88E-03	1.00E-02	0	0.00000000e+000   0.0000e+000	
1099.344	95.598	1.87E-03	1.00E-02	0	0.00000000e+000   0.0000e+000	
1101.745	95.709	1.89E-03	1.00E-02	0	0.00000000e+000   0.0000e+000	
1104.146	95.821	1.94E-03	1.00E-02	0	0.00000000e+000   0.0000e+000	
1106.547	95.933	1.89E-03	1.00E-02	0	0.00000000e+000   0.0000e+000	
1108.952	96.043	1.96E-03	1.00E-02	0	0.00000000e+000   0.0000e+000	
1111.348	96.155	1.93E-03	1.00E-02	0	0.00000000e+000   0.0000e+000	
1113.747	96.266	1.84E-03	1.00E-02	0	0.00000000e+000   0.0000e+000	
1116.15	96.378	1.88E-03	1.00E-02	0	0.00000000e+000   0.0000e+000	
1118.552	96.489	1.77E-03	1.00E-02	0	0.00000000e+000   0.0000e+000	
1120.959	96.601	1.89E-03	1.00E-02	0	0.00000000e+000   0.0000e+000	
1123.35	96.711	1.88E-03	1.00E-02	0	0.00000000e+000   0.0000e+000	
1125.752	96.821	1.82E-03	1.00E-02	0	0.00000000e+000   0.0000e+000	
1128.157	96.932	1.83E-03	1.00E-02	0	0.00000000e+000   0.0000e+000	
1130.551	97.046	1.84E-03	1.00E-02	0	0.00000000e+000   0.0000e+000	
1132.954	97.158	1.83E-03	1.00E-02	0	0.00000000e+000   0.0000e+000	
1135.351	97.271	1.85E-03	1.00E-02	0	0.00000000e+000   0.0000e+000	
1137.752	97.381	1.83E-03	1.00E-02	0	0.00000000e+000   0.0000e+000	
1140.152	97.49	1.75E-03	1.00E-02	0	0.00000000e+000   0.0000e+000	
1142.553	97.605	1.69E-03	1.00E-02	0	0.00000000e+000   0.0000e+000	
1144.956	97.716	1.68E-03	1.00E-02	0	0.00000000e+000   0.0000e+000	
1147.354	97.829	1.74E-03	1.00E-02	0	0.00000000e+000   0.0000e+000	
1149.754	97.94	1.69E-03	1.00E-02	0	0.00000000e+000   0.0000e+000	
1152.156	98.052	1.67E-03	1.00E-02	0	0.00000000e+000   0.0000e+000	
1154.555	98.164	1.57E-03	1.00E-02	0	0.00000000e+000   0.0000e+000	
1156.961	98.276	1.66E-03	1.00E-02	0	0.00000000e+000   0.0000e+000	
1159.358	98.387	1.87E-03	1.00E-02	0	0.00000000e+000   0.0000e+000	
1161.76	98.5	1.90E-03	1.00E-02	0	0.00000000e+000   0.0000e+000	
1164.163	98.612	1.90E-03	1.00E-02	0	0.00000000e+000   0.0000e+000	
1166.558	98.722	1.94E-03	1.00E-02	0	0.00000000e+000   0.0000e+000	
1168.963	98.834	1.93E-03	1.00E-02	0	0.00000000e+000   0.0000e+000	
1171.363	98.947	1.93E-03	1.00E-02	0	0.00000000e+000   0.0000e+000	
1173.759	99.058	1.83E-03	1.00E-02	0	0.00000000e+000   0.0000e+000	
1176.16	99.173	1.86E-03	1.00E-02	0	0.00000000e+000   0.0000e+000	
1178.56	99.286	1.97E-03	1.00E-02	0	0.00000000e+000   0.0000e+000	
1180.963	99.398	1.85E-03	1.00E-02	0	0.00000000e+000   0.0000e+000	
1183.36	99.51	1.87E-03	1.00E-02	0	0.00000000e+000   0.0000e+000	
1185.761	99.624	1.87E-03	1.00E-02	0	0.00000000e+000   0.0000e+000	
1188.162	99.738	1.85E-03	1.00E-02	0	0.00000000e+000   0.0000e+000	
1190.563	99.851	1.91E-03	1.00E-02	0	0.00000000e+000   0.0000e+000	
1192.967	99.964	1.82E-03	1.00E-02	0	0.00000000e+000   0.0000e+000	
1195.363	100.08	1.87E-03	1.00E-02	0	0.00000000e+000   0.0000e+000	
1197.764	100.19	1.85E-03	1.00E-02	0	0.00000000e+000   0.0000e+000	
1200.164	100.29	1.89E-03	1.00E-02	0	0.00000000e+000   0.0000e+000	
1202.567	100.35	1.89E-03	1.00E-02	0	0.00000000e+000   0.0000e+000	
1204.969	100.42	1.93E-03	1.00E-02	0	0.00000000e+000   0.0000e+000	
1207.366	100.49	1.90E-03	1.00E-02	0	0.00000000e+000   0.0000e+000	
1209.768	100.55	1.89E-03	1.00E-02	0	0.00000000e+000   0.0000e+000	
1212.171	100.62	1.88E-03	1.00E-02	0	0.00000000e+000   0.0000e+000	
1214.573	100.69	1.85E-03	1.00E-02	0	0.00000000e+000   0.0000e+000	
1216.971	100.76	1.97E-03	1.00E-02	0	0.00000000e+000   0.0000e+000	
1219.37	100.84	1.99E-03	1.00E-02	0	0.00000000e+000   0.0000e+000	
1221.775	100.92	1.84E-03	1.00E-02	0	0.00000000e+000   0.0000e+000	
1224.169	101	1.44E-03	1.00E-02	0	0.00000000e+000   0.0000e+000	
1226.57	101.08	2.00E-03	1.00E-02	0	0.00000000e+000   0.0000e+000	
1228.973	101.16	2.16E-03	1.00E-02	0	0.00000000e+000   0.0000e+000	
1231.369	101.24	1.95E-03	1.00E-02	0	0.00000000e+000   0.0000e+000	
1233.77	101.33	1.18E-03	1.00E-02	0	0.00000000e+000   0.0000e+000	
1236.17	101.42	1.79E-03	1.00E-02	0	0.00000000e+000   0.0000e+000	
1238.571	101.51	1.72E-03	1.00E-02	0	0.00000000e+000   0.0000e+000	
1240.974	101.6	1.70E-03	1.00E-02	0	0.00000000e+000   0.0000e+000	
1243.372	101.7	1.94E-03	1.00E-02	0	0.00000000e+000   0.0000e+000	
1245.773	101.79	1.97E-03	1.00E-02	0	0.00000000e+000   0.0000e+000	
1248.173	101.89	1.77E-03	1.00E-02	0	0.00000000e+000   0.0000e+000	
1250.575	101.98	1.81E-03	1.00E-02	0	0.00000000e+000   0.0000e+000	
1252.978	102.08	1.83E-03	1.00E-02	0	0.00000000e+000   0.0000e+000	
1255.376	102.18	1.86E-03	1.00E-02	0	0.00000000e+000   0.0000e+000	
1257.776	102.28	1.19E-03	1.00E-02	0	0.00000000e+000   0.0000e+000	
1260.18	102.38	1.87E-03	1.00E-02	0	0.00000000e+000   0.0000e+000	
1262.582	102.48	1.31E-03	1.00E-02	0	0.00000000e+000   0.0000e+000	
1264.98	102.58	2.30E-03	1.00E-02	0	0.00000000e+000   0.0000e+000	
1267.379	102.68	1.41E-03	1.00E-02	0	0.00000000e+000   0.0000e+000	
1269.779	102.79	1.86E-03	1.00E-02	0	0.00000000e+000   0.0000e+000	
1272.176	102.89	2.28E-03	1.00E-02	0	0.00000000e+000   0.0000e+000	
1274.577	103	1.83E-03	1.00E-02	0	0.00000000e+000   0.0000e+000	
1276.981	103.1	1.84E-03	1.00E-02	0	0.00000000e+000   0.0000e+000	
1279.378	103.21	1.93E-03	1.00E-02	0	0.00000000e+000   0.0000e+000	
1281.779	103.31	2.17E-03	1.00E-02	0	0.00000000e+000   0.0000e+000	
1284.179	103.42	1.34E-03	1.00E-02	0	0.00000000e+000   0.0000e+000	
1286.579	103.53	1.87E-03	1.00E-02	0	0.00000000e+000   0.0000e+000	
1288.982	103.64	2.18E-03	1.00E-02	0	0.00000000e+000   0.0000e+000	
1291.379	103.75	1.74E-03	1.00E-02	0	0.00000000e+000   0.0000e+000	
1293.781	103.85	2.23E-03	1.00E-02	0	0.00000000e+000   0.0000e+000	
1296.181	103.96	2.61E-03	1.00E-02	0	0.00000000e+000   0.0000e+000	
1298.583	104.07	2.18E-03	1.00E-02	0	0.00000000e+000   0.0000e+000	
1300.986	104.18	2.20E-03	1.00E-02	0	0.00000000e+000   0.0000e+000	
1303.385	104.29	2.32E-03	1.00E-02	0	0.00000000e+000   0.0000e+000	
1305.785	104.4	2.03E-03	1.00E-02	0	0.00000000e+000   0.0000e+000	
1308.186	104.51	1.70E-03	1.00E-02	0	0.00000000e+000   0.0000e+000	
1310.589	104.62	2.01E-03	1.00E-02	0	0.00000000e+000   0.0000e+000	
1312.996	104.73	2.09E-03	1.00E-02	0	0.00000000e+000   0.0000e+000	
1315.387	104.85	2.05E-03	1.00E-02	0	0.00000000e+000   0.0000e+000	
1317.79	104.96	2.15E-03	1.00E-02	0	0.00000000e+000   0.0000e+000	
1320.185	105.07	2.18E-03	1.00E-02	0	0.00000000e+000   0.0000e+000	
1322.586	105.18	1.98E-03	1.00E-02	0	0.00000000e+000   0.0000e+000	
1324.99	105.29	1.67E-03	1.00E-02	0	0.00000000e+000   0.0000e+000	
1327.387	105.4	2.16E-03	1.00E-02	0	0.00000000e+000   0.0000e+000	
1329.788	105.51	1.62E-03	1.00E-02	0	0.00000000e+000   0.0000e+000	
1332.188	105.62	2.79E-03	1.00E-02	0	0.00000000e+000   0.0000e+000	
1334.588	105.73	2.06E-03	1.00E-02	0	0.00000000e+000   0.0000e+000	
1336.992	105.85	2.03E-03	1.00E-02	0	0.00000000e+000   0.0000e+000	
1339.389	105.96	2.09E-03	1.00E-02	0	0.00000000e+000   0.0000e+000	
1341.79	106.07	2.10E-03	1.00E-02	0	0.00000000e+000   0.0000e+000	
1344.191	106.18	2.14E-03	1.00E-02	0	0.00000000e+000   0.0000e+000	
1346.591	106.29	2.10E-03	1.00E-02	0	0.00000000e+000   0.0000e+000	
1348.996	106.41	2.07E-03	1.00E-02	0	0.00000000e+000   0.0000e+000	
1351.392	106.52	2.06E-03	1.00E-02	0	0.00000000e+000   0.0000e+000	
1353.794	106.63	2.08E-03	1.00E-02	0	0.00000000e+000   0.0000e+000	
1356.194	106.74	2.10E-03	1.00E-02	0	0.00000000e+000   0.0000e+000	
1358.597	106.86	2.14E-03	1.00E-02	0	0.00000000e+000   0.0000e+000	
1361.003	106.97	2.16E-03	1.00E-02	0	0.00000000e+000   0.0000e+000	
1363.401	107.08	1.96E-03	1.00E-02	0	0.00000000e+000   0.0000e+000	
1365.797	107.19	1.99E-03	1.00E-02	0	0.00000000e+000   0.0000e+000	
1368.199	107.3	1.90E-03	1.00E-02	0	0.00000000e+000   0.0000e+000	
1370.596	107.41	2.54E-03	1.00E-02	0	0.00000000e+000   0.0000e+000	
1372.999	107.53	1.83E-03	1.00E-02	0	0.00000000e+000   0.0000e+000	
1375.396	107.64	1.89E-03	1.00E-02	0	0.00000000e+000   0.0000e+000	
1377.796	107.75	1.68E-03	1.00E-02	0	0.00000000e+000   0.0000e+000	
1380.197	107.87	1.82E-03	1.00E-02	0	0.00000000e+000   0.0000e+000	
1382.598	107.98	1.93E-03	1.00E-02	0	0.00000000e+000   0.0000e+000	
1385.002	108.1	1.78E-03	1.00E-02	0	0.00000000e+000   0.0000e+000	
1387.399	108.21	1.65E-03	1.00E-02	0	0.00000000e+000   0.0000e+000	
1389.799	108.32	1.66E-03	1.00E-02	0	0.00000000e+000   0.0000e+000	
1392.199	108.44	1.63E-03	1.00E-02	0	0.00000000e+000   0.0000e+000	
1394.6	108.55	1.74E-03	1.00E-02	0	0.00000000e+000   0.0000e+000	
1397.005	108.67	1.82E-03	1.00E-02	0	0.00000000e+000   0.0000e+000	
1399.402	108.78	1.78E-03	1.00E-02	0	0.00000000e+000   0.0000e+000	
1401.804	108.89	1.79E-03	1.00E-02	0	0.00000000e+000   0.0000e+000	
1404.203	109.01	1.72E-03	1.00E-02	0	0.00000000e+000   0.0000e+000	
1406.606	109.12	2.18E-03	1.00E-02	0	0.00000000e+000   0.0000e+000	
1409.011	109.24	2.49E-03	1.00E-02	0	0.00000000e+000   0.0000e+000	
1411.41	109.35	1.76E-03	1.00E-02	0	0.00000000e+000   0.0000e+000	
1413.805	109.46	1.80E-03	1.00E-02	0	0.00000000e+000   0.0000e+000	
1416.208	109.58	1.74E-03	1.00E-02	0	0.00000000e+000   0.0000e+000	
1418.605	109.69	1.79E-03	1.00E-02	0	0.00000000e+000   0.0000e+000	
1421.008	109.81	1.82E-03	1.00E-02	0	0.00000000e+000   0.0000e+000	
1423.405	109.92	1.49E-03	1.00E-02	0	0.00000000e+000   0.0000e+000	
1425.805	110.04	1.95E-03	1.00E-02	0	0.00000000e+000   0.0000e+000	
1428.206	110.15	1.88E-03	1.00E-02	0	0.00000000e+000   0.0000e+000	
1430.606	110.26	1.86E-03	1.00E-02	0	0.00000000e+000   0.0000e+000	
1433.01	110.38	1.88E-03	1.00E-02	0	0.00000000e+000   0.0000e+000	
1435.408	110.49	1.35E-03	1.00E-02	0	0.00000000e+000   0.0000e+000	
1437.809	110.6	1.98E-03	1.00E-02	0	0.00000000e+000   0.0000e+000	
1440.209	110.72	1.75E-03	1.00E-02	0	0.00000000e+000   0.0000e+000	
1442.609	110.83	1.82E-03	1.00E-02	0	0.00000000e+000   0.0000e+000	
1445.013	110.95	1.78E-03	1.00E-02	0	0.00000000e+000   0.0000e+000	
1447.411	111.06	1.89E-03	1.00E-02	0	0.00000000e+000   0.0000e+000	
1449.81	111.17	1.79E-03	1.00E-02	0	0.00000000e+000   0.0000e+000	
1452.211	111.29	1.83E-03	1.00E-02	0	0.00000000e+000   0.0000e+000	
1454.614	111.4	1.91E-03	1.00E-02	0	0.00000000e+000   0.0000e+000	
1457.019	111.52	1.90E-03	1.00E-02	0	0.00000000e+000   0.0000e+000	
1459.419	111.63	1.86E-03	1.00E-02	0	0.00000000e+000   0.0000e+000	
1461.814	111.74	1.83E-03	1.00E-02	0	0.00000000e+000   0.0000e+000	
1464.215	111.85	1.88E-03	1.00E-02	0	0.00000000e+000   0.0000e+000	
1466.617	111.97	1.89E-03	1.00E-02	0	0.00000000e+000   0.0000e+000	
1469.018	112.08	1.87E-03	1.00E-02	0	0.00000000e+000   0.0000e+000	
1471.415	112.2	1.90E-03	1.00E-02	0	0.00000000e+000   0.0000e+000	
1473.814	112.31	1.88E-03	1.00E-02	0	0.00000000e+000   0.0000e+000	
1476.215	112.43	1.87E-03	1.00E-02	0	0.00000000e+000   0.0000e+000	
1478.616	112.54	2.00E-03	1.00E-02	0	0.00000000e+000   0.0000e+000	
1481.019	112.66	1.89E-03	1.00E-02	0	0.00000000e+000   0.0000e+000	
1483.416	112.77	1.94E-03	1.00E-02	0	0.00000000e+000   0.0000e+000	
1485.816	112.89	1.94E-03	1.00E-02	0	0.00000000e+000   0.0000e+000	
1488.217	113	1.82E-03	1.00E-02	0	0.00000000e+000   0.0000e+000	
1490.617	113.12	1.95E-03	1.00E-02	0	0.00000000e+000   0.0000e+000	
1493.023	113.23	1.87E-03	1.00E-02	0	0.00000000e+000   0.0000e+000	
1495.418	113.34	1.82E-03	1.00E-02	0	0.00000000e+000   0.0000e+000	
1497.821	113.46	1.86E-03	1.00E-02	0	0.00000000e+000   0.0000e+000	
1500.22	113.58	1.88E-03	1.00E-02	0	0.00000000e+000   0.0000e+000	
1502.623	113.69	1.92E-03	1.00E-02	0	0.00000000e+000   0.0000e+000	
1505.029	113.81	1.92E-03	1.00E-02	0	0.00000000e+000   0.0000e+000	
1507.429	113.92	1.91E-03	1.00E-02	0	0.00000000e+000   0.0000e+000	
1509.823	114.03	1.84E-03	1.00E-02	0	0.00000000e+000   0.0000e+000	
1512.225	114.15	1.85E-03	1.00E-02	0	0.00000000e+000   0.0000e+000	
1514.622	114.27	1.87E-03	1.00E-02	0	0.00000000e+000   0.0000e+000	
1517.026	114.38	1.86E-03	1.00E-02	0	0.00000000e+000   0.0000e+000	
1519.424	114.5	1.90E-03	1.00E-02	0	0.00000000e+000   0.0000e+000	
1521.825	114.61	1.92E-03	1.00E-02	0	0.00000000e+000   0.0000e+000	
1524.225	114.73	1.96E-03	1.00E-02	0	0.00000000e+000   0.0000e+000	
1526.625	114.84	1.98E-03	1.00E-02	0	0.00000000e+000   0.0000e+000	
1529.029	114.96	1.94E-03	1.00E-02	0	0.00000000e+000   0.0000e+000	
1531.425	115.07	1.93E-03	1.00E-02	0	0.00000000e+000   0.0000e+000	
1533.826	115.19	1.81E-03	1.00E-02	0	0.00000000e+000   0.0000e+000	
1536.227	115.3	1.85E-03	1.00E-02	0	0.00000000e+000   0.0000e+000	
1538.628	115.41	1.93E-03	1.00E-02	0	0.00000000e+000   0.0000e+000	
1541.031	115.52	1.93E-03	1.00E-02	0	0.00000000e+000   0.0000e+000	
1543.43	115.64	1.99E-03	1.00E-02	0	0.00000000e+000   0.0000e+000	
1545.829	115.75	2.19E-03	1.00E-02	0	0.00000000e+000   0.0000e+000	
1548.229	115.86	2.07E-03	1.00E-02	0	0.00000000e+000   0.0000e+000	
1550.631	115.98	1.99E-03	1.00E-02	0	0.00000000e+000   0.0000e+000	
1553.037	116.09	1.94E-03	1.00E-02	0	0.00000000e+000   0.0000e+000	
1555.436	116.2	1.94E-03	1.00E-02	0	0.00000000e+000   0.0000e+000	
1557.831	116.32	1.88E-03	1.00E-02	0	0.00000000e+000   0.0000e+000	
1560.234	116.43	1.89E-03	1.00E-02	0	0.00000000e+000   0.0000e+000	
1562.636	116.54	1.95E-03	1.00E-02	0	0.00000000e+000   0.0000e+000	
1565.035	116.66	1.94E-03	1.00E-02	0	0.00000000e+000   0.0000e+000	
1567.433	116.77	1.87E-03	1.00E-02	0	0.00000000e+000   0.0000e+000	
1569.833	116.88	1.88E-03	1.00E-02	0	0.00000000e+000   0.0000e+000	
1572.233	117	1.81E-03	1.00E-02	0	0.00000000e+000   0.0000e+000	
1574.634	117.11	1.86E-03	1.00E-02	0	0.00000000e+000   0.0000e+000	
1577.038	117.22	1.87E-03	1.00E-02	0	0.00000000e+000   0.0000e+000	
1579.435	117.34	1.81E-03	1.00E-02	0	0.00000000e+000   0.0000e+000	
1581.836	117.45	1.86E-03	1.00E-02	0	0.00000000e+000   0.0000e+000	
1584.236	117.57	1.85E-03	1.00E-02	0	0.00000000e+000   0.0000e+000	
1586.636	117.68	1.88E-03	1.00E-02	0	0.00000000e+000   0.0000e+000	
1589.041	117.79	1.85E-03	1.00E-02	0	0.00000000e+000   0.0000e+000	
1591.437	117.91	1.83E-03	1.00E-02	0	0.00000000e+000   0.0000e+000	
1593.84	118.02	1.91E-03	1.00E-02	0	0.00000000e+000   0.0000e+000	
1596.24	118.14	1.88E-03	1.00E-02	0	0.00000000e+000   0.0000e+000	
1598.642	118.25	1.87E-03	1.00E-02	0	0.00000000e+000   0.0000e+000	
1601.047	118.36	1.83E-03	1.00E-02	0	0.00000000e+000   0.0000e+000	
1603.447	118.47	1.86E-03	1.00E-02	0	0.00000000e+000   0.0000e+000	
1605.841	118.59	1.91E-03	1.00E-02	0	0.00000000e+000   0.0000e+000	
1608.244	118.7	2.04E-03	1.00E-02	0	0.00000000e+000   0.0000e+000	
1610.641	118.82	1.89E-03	1.00E-02	0	0.00000000e+000   0.0000e+000	
1613.045	118.93	1.90E-03	1.00E-02	0	0.00000000e+000   0.0000e+000	
1615.441	119.05	1.91E-03	1.00E-02	0	0.00000000e+000   0.0000e+000	
1617.842	119.16	1.93E-03	1.00E-02	0	0.00000000e+000   0.0000e+000	
1620.242	119.27	1.81E-03	1.00E-02	0	0.00000000e+000   0.0000e+000	
1622.643	119.39	1.90E-03	1.00E-02	0	0.00000000e+000   0.0000e+000	
1625.047	119.5	1.79E-03	1.00E-02	0	0.00000000e+000   0.0000e+000	
1627.445	119.62	1.90E-03	1.00E-02	0	0.00000000e+000   0.0000e+000	
1629.844	119.73	1.83E-03	1.00E-02	0	0.00000000e+000   0.0000e+000	
1632.245	119.85	1.80E-03	1.00E-02	0	0.00000000e+000   0.0000e+000	
1634.645	119.96	1.85E-03	1.00E-02	0	0.00000000e+000   0.0000e+000	
1637.049	120.08	1.81E-03	1.00E-02	0	0.00000000e+000   0.0000e+000	
1639.448	120.19	1.88E-03	1.00E-02	0	0.00000000e+000   0.0000e+000	
1641.846	120.31	1.83E-03	1.00E-02	0	0.00000000e+000   0.0000e+000	
1644.247	120.42	1.85E-03	1.00E-02	0	0.00000000e+000   0.0000e+000	
1646.65	120.53	1.80E-03	1.00E-02	0	0.00000000e+000   0.0000e+000	
1649.056	120.65	1.92E-03	1.00E-02	0	0.00000000e+000   0.0000e+000	
1651.455	120.76	1.84E-03	1.00E-02	0	0.00000000e+000   0.0000e+000	
1653.85	120.88	1.85E-03	1.00E-02	0	0.00000000e+000   0.0000e+000	
1656.251	120.99	1.90E-03	1.00E-02	0	0.00000000e+000   0.0000e+000	
1658.654	121.11	1.91E-03	1.00E-02	0	0.00000000e+000   0.0000e+000	
1661.054	121.22	1.98E-03	1.00E-02	0	0.00000000e+000   0.0000e+000	
1663.451	121.34	1.92E-03	1.00E-02	0	0.00000000e+000   0.0000e+000	
1665.852	121.45	1.90E-03	1.00E-02	0	0.00000000e+000   0.0000e+000	
1668.252	121.56	1.86E-03	1.00E-02	0	0.00000000e+000   0.0000e+000	
1670.652	121.68	1.84E-03	1.00E-02	0	0.00000000e+000   0.0000e+000	
1673.056	121.8	1.89E-03	1.00E-02	0	0.00000000e+000   0.0000e+000	
1675.452	121.91	1.92E-03	1.00E-02	0	0.00000000e+000   0.0000e+000	
1677.852	122.03	1.94E-03	1.00E-02	0	0.00000000e+000   0.0000e+000	
1680.254	122.14	1.89E-03	1.00E-02	0	0.00000000e+000   0.0000e+000	
1682.655	122.26	1.94E-03	1.00E-02	0	0.00000000e+000   0.0000e+000	
1685.059	122.37	1.88E-03	1.00E-02	0	0.00000000e+000   0.0000e+000	
1687.455	122.49	1.84E-03	1.00E-02	0	0.00000000e+000   0.0000e+000	
1689.857	122.6	1.97E-03	1.00E-02	0	0.00000000e+000   0.0000e+000	
1692.257	122.72	1.90E-03	1.00E-02	0	0.00000000e+000   0.0000e+000	
1694.66	122.84	1.85E-03	1.00E-02	0	0.00000000e+000   0.0000e+000	
1697.066	122.95	1.78E-03	1.00E-02	0	0.00000000e+000   0.0000e+000	
1699.465	123.07	1.87E-03	1.00E-02	0	0.00000000e+000   0.0000e+000	
1701.86	123.18	1.70E-03	1.00E-02	0	0.00000000e+000   0.0000e+000	
1704.262	123.3	1.79E-03	1.00E-02	0	0.00000000e+000   0.0000e+000	
1706.658	123.42	1.77E-03	1.00E-02	0	0.00000000e+000   0.0000e+000	
1709.062	123.53	1.85E-03	1.00E-02	0	0.00000000e+000   0.0000e+000	
1711.459	123.65	1.86E-03	1.00E-02	0	0.00000000e+000   0.0000e+000	
1713.861	123.76	1.83E-03	1.00E-02	0	0.00000000e+000   0.0000e+000	
1716.26	123.88	1.81E-03	1.00E-02	0	0.00000000e+000   0.0000e+000	
1718.661	124	1.93E-03	1.00E-02	0	0.00000000e+000   0.0000e+000	
1721.064	124.12	1.86E-03	1.00E-02	0	0.00000000e+000   0.0000e+000	
1723.462	124.23	2.00E-03	1.00E-02	0	0.00000000e+000   0.0000e+000	
1725.862	124.35	2.02E-03	1.00E-02	0	0.00000000e+000   0.0000e+000	
1728.263	124.47	1.89E-03	1.00E-02	0	0.00000000e+000   0.0000e+000	
1730.663	124.58	1.58E-03	1.00E-02	0	0.00000000e+000   0.0000e+000	
1733.07	124.7	1.87E-03	1.00E-02	0	0.00000000e+000   0.0000e+000	
1735.466	124.82	1.96E-03	1.00E-02	0	0.00000000e+000   0.0000e+000	
1737.865	124.93	1.96E-03	1.00E-02	0	0.00000000e+000   0.0000e+000	
1740.268	125.05	1.92E-03	1.00E-02	0	0.00000000e+000   0.0000e+000	
1742.67	125.17	1.91E-03	1.00E-02	0	0.00000000e+000   0.0000e+000	
1745.076	125.28	1.91E-03	1.00E-02	0	0.00000000e+000   0.0000e+000	
1747.467	125.39	1.88E-03	1.00E-02	0	0.00000000e+000   0.0000e+000	
1749.87	125.51	1.96E-03	1.00E-02	0	0.00000000e+000   0.0000e+000	
1752.271	125.63	1.79E-03	1.00E-02	0	0.00000000e+000   0.0000e+000	
1754.668	125.74	1.83E-03	1.00E-02	0	0.00000000e+000   0.0000e+000	
1757.071	125.86	1.84E-03	1.00E-02	0	0.00000000e+000   0.0000e+000	
1759.468	125.97	1.87E-03	1.00E-02	0	0.00000000e+000   0.0000e+000	
1761.869	126.09	1.89E-03	1.00E-02	0	0.00000000e+000   0.0000e+000	
1764.268	126.21	1.87E-03	1.00E-02	0	0.00000000e+000   0.0000e+000	
1766.67	126.32	1.88E-03	1.00E-02	0	0.00000000e+000   0.0000e+000	
1769.074	126.44	1.94E-03	1.00E-02	0	0.00000000e+000   0.0000e+000	
1771.47	126.56	1.89E-03	1.00E-02	0	0.00000000e+000   0.0000e+000	
1773.872	126.67	1.93E-03	1.00E-02	0	0.00000000e+000   0.0000e+000	
1776.272	126.79	1.87E-03	1.00E-02	0	0.00000000e+000   0.0000e+000	
1778.673	126.9	1.81E-03	1.00E-02	0	0.00000000e+000   0.0000e+000	
1781.077	127.02	1.87E-03	1.00E-02	0	0.00000000e+000   0.0000e+000	
1783.474	127.14	1.86E-03	1.00E-02	0	0.00000000e+000   0.0000e+000	
1785.876	127.25	1.94E-03	1.00E-02	0	0.00000000e+000   0.0000e+000	
1788.276	127.37	1.85E-03	1.00E-02	0	0.00000000e+000   0.0000e+000	
1790.678	127.48	1.92E-03	1.00E-02	0	0.00000000e+000   0.0000e+000	
1793.084	127.6	1.83E-03	1.00E-02	0	0.00000000e+000   0.0000e+000	
1795.483	127.71	1.89E-03	1.00E-02	0	0.00000000e+000   0.0000e+000	
1797.877	127.83	1.83E-03	1.00E-02	0	0.00000000e+000   0.0000e+000	
1800.28	127.95	1.97E-03	1.00E-02	0	0.00000000e+000   0.0000e+000	
1802.678	128.06	1.92E-03	1.00E-02	0	0.00000000e+000   0.0000e+000	
1805.08	128.18	1.82E-03	1.00E-02	0	0.00000000e+000   0.0000e+000	
1807.478	128.3	1.95E-03	1.00E-02	0	0.00000000e+000   0.0000e+000	
1809.878	128.41	1.88E-03	1.00E-02	0	0.00000000e+000   0.0000e+000	
1812.279	128.53	1.92E-03	1.00E-02	0	0.00000000e+000   0.0000e+000	
1814.679	128.64	1.91E-03	1.00E-02	0	0.00000000e+000   0.0000e+000	
1817.083	128.76	1.87E-03	1.00E-02	0	0.00000000e+000   0.0000e+000	
1819.481	128.88	1.89E-03	1.00E-02	0	0.00000000e+000   0.0000e+000	
1821.88	128.99	1.98E-03	1.00E-02	0	0.00000000e+000   0.0000e+000	
1824.281	129.11	1.85E-03	1.00E-02	0	0.00000000e+000   0.0000e+000	
1826.682	129.22	1.94E-03	1.00E-02	0	0.00000000e+000   0.0000e+000	
1829.088	129.34	1.92E-03	1.00E-02	0	0.00000000e+000   0.0000e+000	
1831.483	129.46	1.94E-03	1.00E-02	0	0.00000000e+000   0.0000e+000	
1833.885	129.57	1.88E-03	1.00E-02	0	0.00000000e+000   0.0000e+000	
1836.287	129.69	1.83E-03	1.00E-02	0	0.00000000e+000   0.0000e+000	
1838.689	129.81	1.83E-03	1.00E-02	0	0.00000000e+000   0.0000e+000	
1841.094	129.92	1.96E-03	1.00E-02	0	0.00000000e+000   0.0000e+000	
1843.485	130.04	1.88E-03	1.00E-02	0	0.00000000e+000   0.0000e+000	
1845.888	130.15	1.87E-03	1.00E-02	0	0.00000000e+000   0.0000e+000	
1848.292	130.26	1.88E-03	1.00E-02	0	0.00000000e+000   0.0000e+000	
1850.685	130.38	1.94E-03	1.00E-02	0	0.00000000e+000   0.0000e+000	
1853.089	130.49	1.42E-03	1.00E-02	0	0.00000000e+000   0.0000e+000	
1855.488	130.61	1.83E-03	1.00E-02	0	0.00000000e+000   0.0000e+000	
1857.888	130.72	1.94E-03	1.00E-02	0	0.00000000e+000   0.0000e+000	
1860.288	130.83	1.97E-03	1.00E-02	0	0.00000000e+000   0.0000e+000	
1862.688	130.95	2.13E-03	1.00E-02	0	0.00000000e+000   0.0000e+000	
1865.092	131.06	1.90E-03	1.00E-02	0	0.00000000e+000   0.0000e+000	
1867.488	131.17	1.88E-03	1.00E-02	0	0.00000000e+000   0.0000e+000	
1869.889	131.29	1.88E-03	1.00E-02	0	0.00000000e+000   0.0000e+000	
1872.292	131.4	1.93E-03	1.00E-02	0	0.00000000e+000   0.0000e+000	
1874.692	131.52	1.85E-03	1.00E-02	0	0.00000000e+000   0.0000e+000	
1877.097	131.63	1.96E-03	1.00E-02	0	0.00000000e+000   0.0000e+000	
1879.493	131.75	2.02E-03	1.00E-02	0	0.00000000e+000   0.0000e+000	
1881.895	131.86	1.99E-03	1.00E-02	0	0.00000000e+000   0.0000e+000	
1884.298	131.97	1.80E-03	1.00E-02	0	0.00000000e+000   0.0000e+000	
1886.694	132.09	1.81E-03	1.00E-02	0	0.00000000e+000   0.0000e+000	
1889.099	132.2	1.81E-03	1.00E-02	0	0.00000000e+000   0.0000e+000	
1891.498	132.32	1.79E-03	1.00E-02	0	0.00000000e+000   0.0000e+000	
1893.895	132.43	1.72E-03	1.00E-02	0	0.00000000e+000   0.0000e+000	
1896.295	132.54	1.78E-03	1.00E-02	0	0.00000000e+000   0.0000e+000	
1898.696	132.66	1.83E-03	1.00E-02	0	0.00000000e+000   0.0000e+000	
1901.098	132.77	1.80E-03	1.00E-02	0	0.00000000e+000   0.0000e+000	
1903.496	132.89	1.78E-03	1.00E-02	0	0.00000000e+000   0.0000e+000	
1905.897	133.01	1.81E-03	1.00E-02	0	0.00000000e+000   0.0000e+000	
1908.297	133.12	1.85E-03	1.00E-02	0	0.00000000e+000   0.0000e+000	
1910.697	133.23	1.79E-03	1.00E-02	0	0.00000000e+000   0.0000e+000	
1913.101	133.35	1.85E-03	1.00E-02	0	0.00000000e+000   0.0000e+000	
1915.498	133.46	1.76E-03	1.00E-02	0	0.00000000e+000   0.0000e+000	
1917.9	133.58	1.86E-03	1.00E-02	0	0.00000000e+000   0.0000e+000	
1920.299	133.69	1.81E-03	1.00E-02	0	0.00000000e+000   0.0000e+000	
1922.7	133.81	1.85E-03	1.00E-02	0	0.00000000e+000   0.0000e+000	
1925.105	133.92	1.84E-03	1.00E-02	0	0.00000000e+000   0.0000e+000	
1927.504	134.04	1.76E-03	1.00E-02	0	0.00000000e+000   0.0000e+000	
1929.906	134.15	1.76E-03	1.00E-02	0	0.00000000e+000   0.0000e+000	
1932.309	134.27	1.88E-03	1.00E-02	0	0.00000000e+000   0.0000e+000	
1934.703	134.38	1.87E-03	1.00E-02	0	0.00000000e+000   0.0000e+000	
1937.109	134.5	1.65E-03	1.00E-02	0	0.00000000e+000   0.0000e+000	
1939.502	134.61	1.86E-03	1.00E-02	0	0.00000000e+000   0.0000e+000	
1941.903	134.73	1.90E-03	1.00E-02	0	0.00000000e+000   0.0000e+000	
1944.304	134.84	1.92E-03	1.00E-02	0	0.00000000e+000   0.0000e+000	
1946.705	134.96	1.96E-03	1.00E-02	0	0.00000000e+000   0.0000e+000	
1949.108	135.07	1.82E-03	1.00E-02	0	0.00000000e+000   0.0000e+000	
1951.505	135.19	1.99E-03	1.00E-02	0	0.00000000e+000   0.0000e+000	
1953.905	135.3	1.95E-03	1.00E-02	0	0.00000000e+000   0.0000e+000	
1956.305	135.42	1.90E-03	1.00E-02	0	0.00000000e+000   0.0000e+000	
1958.707	135.53	1.86E-03	1.00E-02	0	0.00000000e+000   0.0000e+000	
1961.111	135.65	1.96E-03	1.00E-02	0	0.00000000e+000   0.0000e+000	
1963.508	135.76	1.96E-03	1.00E-02	0	0.00000000e+000   0.0000e+000	
1965.91	135.88	1.98E-03	1.00E-02	0	0.00000000e+000   0.0000e+000	
1968.309	135.99	1.71E-03	1.00E-02	0	0.00000000e+000   0.0000e+000	
1970.709	136.11	2.01E-03	1.00E-02	0	0.00000000e+000   0.0000e+000	
1973.115	136.23	1.90E-03	1.00E-02	0	0.00000000e+000   0.0000e+000	
1975.514	136.34	1.90E-03	1.00E-02	0	0.00000000e+000   0.0000e+000	
1977.917	136.46	1.96E-03	1.00E-02	0	0.00000000e+000   0.0000e+000	
1980.312	136.57	2.03E-03	1.00E-02	0	0.00000000e+000   0.0000e+000	
1982.714	136.69	2.03E-03	1.00E-02	0	0.00000000e+000   0.0000e+000	
1985.122	136.8	1.95E-03	1.00E-02	0	0.00000000e+000   0.0000e+000	
1987.512	136.92	1.98E-03	1.00E-02	0	0.00000000e+000   0.0000e+000	
1989.912	137.03	1.97E-03	1.00E-02	0	0.00000000e+000   0.0000e+000	
1992.312	137.15	1.94E-03	1.00E-02	0	0.00000000e+000   0.0000e+000	
1994.714	137.27	1.93E-03	1.00E-02	0	0.00000000e+000   0.0000e+000	
1997.118	137.39	1.94E-03	1.00E-02	0	0.00000000e+000   0.0000e+000	
1999.514	137.5	1.93E-03	1.00E-02	0	0.00000000e+000   0.0000e+000	
2001.914	137.62	1.86E-03	1.00E-02	0	0.00000000e+000   0.0000e+000	
2004.315	137.74	1.87E-03	1.00E-02	0	0.00000000e+000   0.0000e+000	
2006.716	137.85	1.81E-03	1.00E-02	0	0.00000000e+000   0.0000e+000	
2009.119	137.97	1.79E-03	1.00E-02	0	0.00000000e+000   0.0000e+000	
2011.516	138.08	1.87E-03	1.00E-02	0	0.00000000e+000   0.0000e+000	
2013.919	138.2	1.96E-03	1.00E-02	0	0.00000000e+000   0.0000e+000	
2016.318	138.32	2.03E-03	1.00E-02	0	0.00000000e+000   0.0000e+000	
2018.718	138.44	1.98E-03	1.00E-02	0	0.00000000e+000   0.0000e+000	
2021.123	138.55	1.94E-03	1.00E-02	0	0.00000000e+000   0.0000e+000	
2023.522	138.67	1.95E-03	1.00E-02	0	0.00000000e+000   0.0000e+000	
2025.924	138.79	1.92E-03	1.00E-02	0	0.00000000e+000   0.0000e+000	
2028.321	138.9	2.03E-03	1.00E-02	0	0.00000000e+000   0.0000e+000	
2030.722	139.02	1.99E-03	1.00E-02	0	0.00000000e+000   0.0000e+000	
2033.128	139.14	1.99E-03	1.00E-02	0	0.00000000e+000   0.0000e+000	
2035.521	139.26	2.00E-03	1.00E-02	0	0.00000000e+000   0.0000e+000	
2037.921	139.37	1.95E-03	1.00E-02	0	0.00000000e+000   0.0000e+000	
2040.322	139.49	2.06E-03	1.00E-02	0	0.00000000e+000   0.0000e+000	
2042.722	139.61	2.01E-03	1.00E-02	0	0.00000000e+000   0.0000e+000	
2045.126	139.73	2.00E-03	1.00E-02	0	0.00000000e+000   0.0000e+000	
2047.523	139.84	1.98E-03	1.00E-02	0	0.00000000e+000   0.0000e+000	
2049.924	139.96	1.96E-03	1.00E-02	0	0.00000000e+000   0.0000e+000	
2052.324	140.08	1.97E-03	1.00E-02	0	0.00000000e+000   0.0000e+000	
2054.724	140.2	1.96E-03	1.00E-02	0	0.00000000e+000   0.0000e+000	
2057.128	140.31	1.98E-03	1.00E-02	0	0.00000000e+000   0.0000e+000	
2059.526	140.43	2.02E-03	1.00E-02	0	0.00000000e+000   0.0000e+000	
2061.925	140.55	1.99E-03	1.00E-02	0	0.00000000e+000   0.0000e+000	
2064.328	140.67	2.03E-03	1.00E-02	0	0.00000000e+000   0.0000e+000	
2066.728	140.78	2.02E-03	1.00E-02	0	0.00000000e+000   0.0000e+000	
2069.134	140.9	2.03E-03	1.00E-02	0	0.00000000e+000   0.0000e+000	
2071.533	141.02	2.01E-03	1.00E-02	0	0.00000000e+000   0.0000e+000	
2073.935	141.14	1.97E-03	1.00E-02	0	0.00000000e+000   0.0000e+000	
2076.329	141.25	2.00E-03	1.00E-02	0	0.00000000e+000   0.0000e+000	
2078.732	141.37	2.09E-03	1.00E-02	0	0.00000000e+000   0.0000e+000	
2081.132	141.49	2.03E-03	1.00E-02	0	0.00000000e+000   0.0000e+000	
2083.53	141.61	2.03E-03	1.00E-02	0	0.00000000e+000   0.0000e+000	
2085.93	141.72	1.95E-03	1.00E-02	0	0.00000000e+000   0.0000e+000	
2088.33	141.84	1.98E-03	1.00E-02	0	0.00000000e+000   0.0000e+000	
2090.731	141.96	2.08E-03	1.00E-02	0	0.00000000e+000   0.0000e+000	
2093.134	142.07	2.06E-03	1.00E-02	0	0.00000000e+000   0.0000e+000	
2095.531	142.19	2.05E-03	1.00E-02	0	0.00000000e+000   0.0000e+000	
2097.933	142.31	2.05E-03	1.00E-02	0	0.00000000e+000   0.0000e+000	
2100.333	142.43	2.06E-03	1.00E-02	0	0.00000000e+000   0.0000e+000	
2102.733	142.55	2.03E-03	1.00E-02	0	0.00000000e+000   0.0000e+000	
2105.137	142.66	1.95E-03	1.00E-02	0	0.00000000e+000   0.0000e+000	
2107.535	142.78	1.98E-03	1.00E-02	0	0.00000000e+000   0.0000e+000	
2109.937	142.9	2.04E-03	1.00E-02	0	0.00000000e+000   0.0000e+000	
2112.336	143.02	2.09E-03	1.00E-02	0	0.00000000e+000   0.0000e+000	
2114.736	143.13	2.06E-03	1.00E-02	0	0.00000000e+000   0.0000e+000	
2117.142	143.25	2.13E-03	1.00E-02	0	0.00000000e+000   0.0000e+000	
2119.542	143.37	2.08E-03	1.00E-02	0	0.00000000e+000   0.0000e+000	
2121.944	143.48	2.07E-03	1.00E-02	0	0.00000000e+000   0.0000e+000	
2124.339	143.6	2.04E-03	1.00E-02	0	0.00000000e+000   0.0000e+000	
2126.741	143.72	2.02E-03	1.00E-02	0	0.00000000e+000   0.0000e+000	
2129.141	143.84	2.01E-03	1.00E-02	0	0.00000000e+000   0.0000e+000	
2131.538	143.96	2.03E-03	1.00E-02	0	0.00000000e+000   0.0000e+000	
2133.939	144.07	2.01E-03	1.00E-02	0	0.00000000e+000   0.0000e+000	
2136.34	144.19	2.08E-03	1.00E-02	0	0.00000000e+000   0.0000e+000	
2138.74	144.31	2.00E-03	1.00E-02	0	0.00000000e+000   0.0000e+000	
2141.144	144.43	2.00E-03	1.00E-02	0	0.00000000e+000   0.0000e+000	
2143.54	144.54	2.08E-03	1.00E-02	0	0.00000000e+000   0.0000e+000	
2145.94	144.66	2.05E-03	1.00E-02	0	0.00000000e+000   0.0000e+000	
2148.341	144.78	1.98E-03	1.00E-02	0	0.00000000e+000   0.0000e+000	
2150.742	144.9	2.07E-03	1.00E-02	0	0.00000000e+000   0.0000e+000	
2153.146	145.02	2.16E-03	1.00E-02	0	0.00000000e+000   0.0000e+000	
2155.546	145.13	1.75E-03	1.00E-02	0	0.00000000e+000   0.0000e+000	
2157.944	145.25	2.07E-03	1.00E-02	0	0.00000000e+000   0.0000e+000	
2160.345	145.36	2.16E-03	1.00E-02	0	0.00000000e+000   0.0000e+000	
2162.747	145.48	2.04E-03	1.00E-02	0	0.00000000e+000   0.0000e+000	
2165.152	145.59	2.03E-03	1.00E-02	0	0.00000000e+000   0.0000e+000	
2167.551	145.71	2.05E-03	1.00E-02	0	0.00000000e+000   0.0000e+000	
2169.947	145.82	2.02E-03	1.00E-02	0	0.00000000e+000   0.0000e+000	
2172.349	145.94	2.06E-03	1.00E-02	0	0.00000000e+000   0.0000e+000	
2174.746	146.05	2.04E-03	1.00E-02	0	0.00000000e+000   0.0000e+000	
2177.15	146.17	2.07E-03	1.00E-02	0	0.00000000e+000   0.0000e+000	
2179.547	146.28	1.98E-03	1.00E-02	0	0.00000000e+000   0.0000e+000	
2181.947	146.4	2.02E-03	1.00E-02	0	0.00000000e+000   0.0000e+000	
2184.347	146.52	2.00E-03	1.00E-02	0	0.00000000e+000   0.0000e+000	
2186.749	146.63	2.00E-03	1.00E-02	0	0.00000000e+000   0.0000e+000	
2189.152	146.75	2.02E-03	1.00E-02	0	0.00000000e+000   0.0000e+000	
2191.55	146.86	2.07E-03	1.00E-02	0	0.00000000e+000   0.0000e+000	
2193.95	146.98	2.09E-03	1.00E-02	0	0.00000000e+000   0.0000e+000	
2196.35	147.09	2.10E-03	1.00E-02	0	0.00000000e+000   0.0000e+000	
2198.751	147.21	2.01E-03	1.00E-02	0	0.00000000e+000   0.0000e+000	
2201.154	147.32	2.04E-03	1.00E-02	0	0.00000000e+000   0.0000e+000	
2203.554	147.44	2.03E-03	1.00E-02	0	0.00000000e+000   0.0000e+000	
2205.953	147.56	2.04E-03	1.00E-02	0	0.00000000e+000   0.0000e+000	
2208.355	147.67	2.04E-03	1.00E-02	0	0.00000000e+000   0.0000e+000	
2210.755	147.79	2.12E-03	1.00E-02	0	0.00000000e+000   0.0000e+000	
2213.161	147.9	2.10E-03	1.00E-02	0	0.00000000e+000   0.0000e+000	
2215.559	148.02	1.98E-03	1.00E-02	0	0.00000000e+000   0.0000e+000	
2217.962	148.13	2.25E-03	1.00E-02	0	0.00000000e+000   0.0000e+000	
2220.358	148.25	2.02E-03	1.00E-02	0	0.00000000e+000   0.0000e+000	
2222.76	148.36	2.13E-03	1.00E-02	0	0.00000000e+000   0.0000e+000	
2225.16	148.48	2.07E-03	1.00E-02	0	0.00000000e+000   0.0000e+000	
2227.556	148.6	2.05E-03	1.00E-02	0	0.00000000e+000   0.0000e+000	
2229.956	148.71	2.10E-03	1.00E-02	0	0.00000000e+000   0.0000e+000	
2232.356	148.83	2.08E-03	1.00E-02	0	0.00000000e+000   0.0000e+000	
2234.757	148.94	2.02E-03	1.00E-02	0	0.00000000e+000   0.0000e+000	
2237.161	149.06	2.04E-03	1.00E-02	0	0.00000000e+000   0.0000e+000	
2239.558	149.17	1.95E-03	1.00E-02	0	0.00000000e+000   0.0000e+000	
2241.959	149.29	2.04E-03	1.00E-02	0	0.00000000e+000   0.0000e+000	
2244.359	149.4	2.09E-03	1.00E-02	0	0.00000000e+000   0.0000e+000	
2246.76	149.52	2.01E-03	1.00E-02	0	0.00000000e+000   0.0000e+000	
2249.162	149.64	2.06E-03	1.00E-02	0	0.00000000e+000   0.0000e+000	
2251.56	149.75	2.04E-03	1.00E-02	0	0.00000000e+000   0.0000e+000	
2253.962	149.87	2.01E-03	1.00E-02	0	0.00000000e+000   0.0000e+000	
2256.362	149.98	2.07E-03	1.00E-02	0	0.00000000e+000   0.0000e+000	
2258.764	150.1	2.06E-03	1.00E-02	0	0.00000000e+000   0.0000e+000	
2261.167	150.21	1.99E-03	1.00E-02	0	0.00000000e+000   0.0000e+000	
2263.567	150.33	2.12E-03	1.00E-02	0	0.00000000e+000   0.0000e+000	
2265.969	150.45	2.06E-03	1.00E-02	0	0.00000000e+000   0.0000e+000	
2268.371	150.56	2.09E-03	1.00E-02	0	0.00000000e+000   0.0000e+000	
2270.765	150.68	2.06E-03	1.00E-02	0	0.00000000e+000   0.0000e+000	
2273.172	150.79	1.99E-03	1.00E-02	0	0.00000000e+000   0.0000e+000	
2275.566	150.91	1.97E-03	1.00E-02	0	0.00000000e+000   0.0000e+000	
2277.966	151.02	2.09E-03	1.00E-02	0	0.00000000e+000   0.0000e+000	
2280.366	151.14	2.01E-03	1.00E-02	0	0.00000000e+000   0.0000e+000	
2282.767	151.26	2.01E-03	1.00E-02	0	0.00000000e+000   0.0000e+000	
2285.17	151.37	2.09E-03	1.00E-02	0	0.00000000e+000   0.0000e+000	
2287.567	151.49	2.04E-03	1.00E-02	0	0.00000000e+000   0.0000e+000	
2289.967	151.61	2.04E-03	1.00E-02	0	0.00000000e+000   0.0000e+000	
2292.368	151.73	2.05E-03	1.00E-02	0	0.00000000e+000   0.0000e+000	
2294.769	151.84	2.09E-03	1.00E-02	0	0.00000000e+000   0.0000e+000	
2297.173	151.96	2.11E-03	1.00E-02	0	0.00000000e+000   0.0000e+000	
2299.57	152.07	2.00E-03	1.00E-02	0	0.00000000e+000   0.0000e+000	
2301.971	152.19	2.16E-03	1.00E-02	0	0.00000000e+000   0.0000e+000	
2304.371	152.31	2.12E-03	1.00E-02	0	0.00000000e+000   0.0000e+000	
2306.772	152.43	2.17E-03	1.00E-02	0	0.00000000e+000   0.0000e+000	
2309.176	152.54	2.17E-03	1.00E-02	0	0.00000000e+000   0.0000e+000	
2311.575	152.66	2.11E-03	1.00E-02	0	0.00000000e+000   0.0000e+000	
2313.978	152.78	2.12E-03	1.00E-02	0	0.00000000e+000   0.0000e+000	
2316.38	152.89	2.19E-03	1.00E-02	0	0.00000000e+000   0.0000e+000	
2318.775	153.01	2.04E-03	1.00E-02	0	0.00000000e+000   0.0000e+000	
2321.18	153.13	2.11E-03	1.00E-02	0	0.00000000e+000   0.0000e+000	
2323.574	153.24	2.15E-03	1.00E-02	0	0.00000000e+000   0.0000e+000	
2325.975	153.36	2.10E-03	1.00E-02	0	0.00000000e+000   0.0000e+000	
2328.375	153.48	2.08E-03	1.00E-02	0	0.00000000e+000   0.0000e+000	
2330.775	153.6	2.10E-03	1.00E-02	0	0.00000000e+000   0.0000e+000	
2333.179	153.71	2.12E-03	1.00E-02	0	0.00000000e+000   0.0000e+000	
2335.576	153.83	2.20E-03	1.00E-02	0	0.00000000e+000   0.0000e+000	
2337.976	153.95	2.13E-03	1.00E-02	0	0.00000000e+000   0.0000e+000	
2340.376	154.07	2.20E-03	1.00E-02	0	0.00000000e+000   0.0000e+000	
2342.778	154.19	2.19E-03	1.00E-02	0	0.00000000e+000   0.0000e+000	
2345.182	154.3	2.17E-03	1.00E-02	0	0.00000000e+000   0.0000e+000	
2347.58	154.42	2.21E-03	1.00E-02	0	0.00000000e+000   0.0000e+000	
2349.98	154.54	2.18E-03	1.00E-02	0	0.00000000e+000   0.0000e+000	
2352.381	154.65	2.23E-03	1.00E-02	0	0.00000000e+000   0.0000e+000	
2354.781	154.77	2.12E-03	1.00E-02	0	0.00000000e+000   0.0000e+000	
2357.187	154.89	2.12E-03	1.00E-02	0	0.00000000e+000   0.0000e+000	
2359.586	155.01	2.09E-03	1.00E-02	0	0.00000000e+000   0.0000e+000	
2361.989	155.12	2.12E-03	1.00E-02	0	0.00000000e+000   0.0000e+000	
2364.384	155.24	2.14E-03	1.00E-02	0	0.00000000e+000   0.0000e+000	
2366.786	155.35	2.10E-03	1.00E-02	0	0.00000000e+000   0.0000e+000	
2369.186	155.47	2.15E-03	1.00E-02	0	0.00000000e+000   0.0000e+000	
2371.583	155.58	2.14E-03	1.00E-02	0	0.00000000e+000   0.0000e+000	
2373.983	155.7	2.15E-03	1.00E-02	0	0.00000000e+000   0.0000e+000	
2376.384	155.81	2.14E-03	1.00E-02	0	0.00000000e+000   0.0000e+000	
2378.785	155.93	2.20E-03	1.00E-02	0	0.00000000e+000   0.0000e+000	
2381.189	156.04	2.12E-03	1.00E-02	0	0.00000000e+000   0.0000e+000	
2383.585	156.16	2.15E-03	1.00E-02	0	0.00000000e+000   0.0000e+000	
2385.986	156.28	2.16E-03	1.00E-02	0	0.00000000e+000   0.0000e+000	
2388.387	156.39	2.09E-03	1.00E-02	0	0.00000000e+000   0.0000e+000	
2390.787	156.51	2.20E-03	1.00E-02	0	0.00000000e+000   0.0000e+000	
2393.19	156.62	2.09E-03	1.00E-02	0	0.00000000e+000   0.0000e+000	
2395.588	156.74	2.30E-03	1.00E-02	0	0.00000000e+000   0.0000e+000	
2397.991	156.86	2.07E-03	1.00E-02	0	0.00000000e+000   0.0000e+000	
2400.39	156.97	2.05E-03	1.00E-02	0	0.00000000e+000   0.0000e+000	
2402.79	157.09	2.20E-03	1.00E-02	0	0.00000000e+000   0.0000e+000	
2405.195	157.2	2.20E-03	1.00E-02	0	0.00000000e+000   0.0000e+000	
2407.595	157.32	2.15E-03	1.00E-02	0	0.00000000e+000   0.0000e+000	
2409.997	157.43	2.18E-03	1.00E-02	0	0.00000000e+000   0.0000e+000	
2412.393	157.55	2.13E-03	1.00E-02	0	0.00000000e+000   0.0000e+000	
2414.795	157.66	2.16E-03	1.00E-02	0	0.00000000e+000   0.0000e+000	
2417.201	157.78	2.06E-03	1.00E-02	0	0.00000000e+000   0.0000e+000	
2419.593	157.9	2.09E-03	1.00E-02	0	0.00000000e+000   0.0000e+000	
2421.992	158.01	2.09E-03	1.00E-02	0	0.00000000e+000   0.0000e+000	
2424.392	158.13	2.06E-03	1.00E-02	0	0.00000000e+000   0.0000e+000	
2426.793	158.24	2.12E-03	1.00E-02	0	0.00000000e+000   0.0000e+000	
2429.197	158.36	2.13E-03	1.00E-02	0	0.00000000e+000   0.0000e+000	
2431.595	158.47	2.11E-03	1.00E-02	0	0.00000000e+000   0.0000e+000	
2433.995	158.59	2.08E-03	1.00E-02	0	0.00000000e+000   0.0000e+000	
2436.396	158.7	2.11E-03	1.00E-02	0	0.00000000e+000   0.0000e+000	
2438.795	158.82	2.08E-03	1.00E-02	0	0.00000000e+000   0.0000e+000	
2441.199	158.94	2.14E-03	1.00E-02	0	0.00000000e+000   0.0000e+000	
2443.598	159.05	2.07E-03	1.00E-02	0	0.00000000e+000   0.0000e+000	
2445.997	159.17	2.10E-03	1.00E-02	0	0.00000000e+000   0.0000e+000	
2448.4	159.28	2.12E-03	1.00E-02	0	0.00000000e+000   0.0000e+000	
2450.8	159.4	2.10E-03	1.00E-02	0	0.00000000e+000   0.0000e+000	
2453.205	159.52	2.12E-03	1.00E-02	0	0.00000000e+000   0.0000e+000	
2455.604	159.63	2.04E-03	1.00E-02	0	0.00000000e+000   0.0000e+000	
2458.007	159.75	2.11E-03	1.00E-02	0	0.00000000e+000   0.0000e+000	
2460.401	159.86	2.12E-03	1.00E-02	0	0.00000000e+000   0.0000e+000	
2462.804	159.98	2.11E-03	1.00E-02	0	0.00000000e+000   0.0000e+000	
2465.205	160.09	2.12E-03	1.00E-02	0	0.00000000e+000   0.0000e+000	
2467.602	160.21	2.12E-03	1.00E-02	0	0.00000000e+000   0.0000e+000	
2470.002	160.33	2.07E-03	1.00E-02	0	0.00000000e+000   0.0000e+000	
2472.402	160.45	2.10E-03	1.00E-02	0	0.00000000e+000   0.0000e+000	
2474.803	160.56	2.08E-03	1.00E-02	0	0.00000000e+000   0.0000e+000	
2477.207	160.68	2.08E-03	1.00E-02	0	0.00000000e+000   0.0000e+000	
2479.603	160.8	2.10E-03	1.00E-02	0	0.00000000e+000   0.0000e+000	
2482.004	160.92	2.11E-03	1.00E-02	0	0.00000000e+000   0.0000e+000	
2484.405	161.04	2.09E-03	1.00E-02	0	0.00000000e+000   0.0000e+000	
2486.806	161.15	2.15E-03	1.00E-02	0	0.00000000e+000   0.0000e+000	
2489.209	161.27	2.10E-03	1.00E-02	0	0.00000000e+000   0.0000e+000	
2491.608	161.39	2.09E-03	1.00E-02	0	0.00000000e+000   0.0000e+000	
2494.007	161.5	2.11E-03	1.00E-02	0	0.00000000e+000   0.0000e+000	
2496.407	161.62	2.20E-03	1.00E-02	0	0.00000000e+000   0.0000e+000	
2498.809	161.74	2.16E-03	1.00E-02	0	0.00000000e+000   0.0000e+000	
2501.216	161.86	2.16E-03	1.00E-02	0	0.00000000e+000   0.0000e+000	
2503.615	161.98	2.11E-03	1.00E-02	0	0.00000000e+000   0.0000e+000	
2506.01	162.1	2.11E-03	1.00E-02	0	0.00000000e+000   0.0000e+000	
2508.412	162.21	2.12E-03	1.00E-02	0	0.00000000e+000   0.0000e+000	
2510.81	162.33	2.08E-03	1.00E-02	0	0.00000000e+000   0.0000e+000	
2513.214	162.45	2.11E-03	1.00E-02	0	0.00000000e+000   0.0000e+000	
2515.611	162.57	2.12E-03	1.00E-02	0	0.00000000e+000   0.0000e+000	
2518.012	162.69	2.07E-03	1.00E-02	0	0.00000000e+000   0.0000e+000	
2520.412	162.81	2.13E-03	1.00E-02	0	0.00000000e+000   0.0000e+000	
2522.812	162.93	2.09E-03	1.00E-02	0	0.00000000e+000   0.0000e+000	
2525.216	163.04	2.13E-03	1.00E-02	0	0.00000000e+000   0.0000e+000	
2527.613	163.16	2.03E-03	1.00E-02	0	0.00000000e+000   0.0000e+000	
2530.013	163.28	2.20E-03	1.00E-02	0	0.00000000e+000   0.0000e+000	
2532.414	163.4	2.17E-03	1.00E-02	0	0.00000000e+000   0.0000e+000	
2534.815	163.52	2.15E-03	1.00E-02	0	0.00000000e+000   0.0000e+000	
2537.219	163.64	2.19E-03	1.00E-02	0	0.00000000e+000   0.0000e+000	
2539.617	163.76	2.25E-03	1.00E-02	0	0.00000000e+000   0.0000e+000	
2542.017	163.88	2.15E-03	1.00E-02	0	0.00000000e+000   0.0000e+000	
2544.42	164	2.18E-03	1.00E-02	0	0.00000000e+000   0.0000e+000	
2546.822	164.11	2.12E-03	1.00E-02	0	0.00000000e+000   0.0000e+000	
2549.221	164.23	2.11E-03	1.00E-02	0	0.00000000e+000   0.0000e+000	
2551.618	164.35	2.22E-03	1.00E-02	0	0.00000000e+000   0.0000e+000	
2554.022	164.47	2.13E-03	1.00E-02	0	0.00000000e+000   0.0000e+000	
2556.418	164.59	2.14E-03	1.00E-02	0	0.00000000e+000   0.0000e+000	
2558.819	164.71	2.22E-03	1.00E-02	0	0.00000000e+000   0.0000e+000	
2561.222	164.82	2.14E-03	1.00E-02	0	0.00000000e+000   0.0000e+000	
2563.619	164.94	2.19E-03	1.00E-02	0	0.00000000e+000   0.0000e+000	
2566.019	165.06	2.24E-03	1.00E-02	0	0.00000000e+000   0.0000e+000	
2568.42	165.18	2.17E-03	1.00E-02	0	0.00000000e+000   0.0000e+000	
2570.821	165.3	2.18E-03	1.00E-02	0	0.00000000e+000   0.0000e+000	
2573.225	165.42	2.18E-03	1.00E-02	0	0.00000000e+000   0.0000e+000	
2575.622	165.53	2.15E-03	1.00E-02	0	0.00000000e+000   0.0000e+000	
2578.021	165.65	2.19E-03	1.00E-02	0	0.00000000e+000   0.0000e+000	
2580.423	165.77	2.17E-03	1.00E-02	0	0.00000000e+000   0.0000e+000	
2582.823	165.89	2.13E-03	1.00E-02	0	0.00000000e+000   0.0000e+000	
2585.228	166	2.21E-03	1.00E-02	0	0.00000000e+000   0.0000e+000	
2587.625	166.12	2.17E-03	1.00E-02	0	0.00000000e+000   0.0000e+000	
2590.027	166.24	2.16E-03	1.00E-02	0	0.00000000e+000   0.0000e+000	
2592.43	166.36	2.18E-03	1.00E-02	0	0.00000000e+000   0.0000e+000	
2594.833	166.47	2.20E-03	1.00E-02	0	0.00000000e+000   0.0000e+000	
2597.23	166.59	2.21E-03	1.00E-02	0	0.00000000e+000   0.0000e+000	
2599.629	166.71	2.17E-03	1.00E-02	0	0.00000000e+000   0.0000e+000	
2602.026	166.82	2.22E-03	1.00E-02	0	0.00000000e+000   0.0000e+000	
2604.427	166.94	2.12E-03	1.00E-02	0	0.00000000e+000   0.0000e+000	
2606.828	167.06	2.18E-03	1.00E-02	0	0.00000000e+000   0.0000e+000	
2609.232	167.18	2.25E-03	1.00E-02	0	0.00000000e+000   0.0000e+000	
2611.629	167.29	2.15E-03	1.00E-02	0	0.00000000e+000   0.0000e+000	
2614.029	167.41	2.15E-03	1.00E-02	0	0.00000000e+000   0.0000e+000	
2616.429	167.53	2.15E-03	1.00E-02	0	0.00000000e+000   0.0000e+000	
2618.829	167.65	2.13E-03	1.00E-02	0	0.00000000e+000   0.0000e+000	
2621.233	167.76	2.17E-03	1.00E-02	0	0.00000000e+000   0.0000e+000	
2623.631	167.88	2.19E-03	1.00E-02	0	0.00000000e+000   0.0000e+000	
2626.031	168	2.18E-03	1.00E-02	0	0.00000000e+000   0.0000e+000	
2628.432	168.12	2.09E-03	1.00E-02	0	0.00000000e+000   0.0000e+000	
2630.834	168.23	2.22E-03	1.00E-02	0	0.00000000e+000   0.0000e+000	
2633.235	168.35	2.12E-03	1.00E-02	0	0.00000000e+000   0.0000e+000	
2635.635	168.46	2.20E-03	1.00E-02	0	0.00000000e+000   0.0000e+000	
2638.034	168.58	2.10E-03	1.00E-02	0	0.00000000e+000   0.0000e+000	
2640.438	168.7	2.13E-03	1.00E-02	0	0.00000000e+000   0.0000e+000	
2642.84	168.82	2.13E-03	1.00E-02	0	0.00000000e+000   0.0000e+000	
2645.239	168.93	2.25E-03	1.00E-02	0	0.00000000e+000   0.0000e+000	
2647.637	169.05	2.19E-03	1.00E-02	0	0.00000000e+000   0.0000e+000	
2650.039	169.17	2.16E-03	1.00E-02	0	0.00000000e+000   0.0000e+000	
2652.436	169.28	2.16E-03	1.00E-02	0	0.00000000e+000   0.0000e+000	
2654.836	169.4	2.16E-03	1.00E-02	0	0.00000000e+000   0.0000e+000	
2657.24	169.52	2.16E-03	1.00E-02	0	0.00000000e+000   0.0000e+000	
2659.638	169.64	2.22E-03	1.00E-02	0	0.00000000e+000   0.0000e+000	
2662.037	169.75	2.20E-03	1.00E-02	0	0.00000000e+000   0.0000e+000	
2664.438	169.87	2.17E-03	1.00E-02	0	0.00000000e+000   0.0000e+000	
2666.839	169.99	2.19E-03	1.00E-02	0	0.00000000e+000   0.0000e+000	
2669.242	170.1	2.20E-03	1.00E-02	0	0.00000000e+000   0.0000e+000	
2671.639	170.22	2.22E-03	1.00E-02	0	0.00000000e+000   0.0000e+000	
2674.04	170.33	2.24E-03	1.00E-02	0	0.00000000e+000   0.0000e+000	
2676.441	170.45	2.16E-03	1.00E-02	0	0.00000000e+000   0.0000e+000	
2678.841	170.57	2.22E-03	1.00E-02	0	0.00000000e+000   0.0000e+000	
2681.247	170.68	2.21E-03	1.00E-02	0	0.00000000e+000   0.0000e+000	
2683.642	170.8	2.25E-03	1.00E-02	0	0.00000000e+000   0.0000e+000	
2686.045	170.92	2.21E-03	1.00E-02	0	0.00000000e+000   0.0000e+000	
2688.445	171.03	2.18E-03	1.00E-02	0	0.00000000e+000   0.0000e+000	
2690.847	171.15	2.23E-03	1.00E-02	0	0.00000000e+000   0.0000e+000	
2693.254	171.27	2.20E-03	1.00E-02	0	0.00000000e+000   0.0000e+000	
2695.646	171.38	2.13E-03	1.00E-02	0	0.00000000e+000   0.0000e+000	
2698.048	171.5	2.22E-03	1.00E-02	0	0.00000000e+000   0.0000e+000	
2700.45	171.61	2.22E-03	1.00E-02	0	0.00000000e+000   0.0000e+000	
2702.845	171.73	2.25E-03	1.00E-02	0	0.00000000e+000   0.0000e+000	
2705.249	171.85	2.36E-03	1.00E-02	0	0.00000000e+000   0.0000e+000	
2707.646	171.96	2.24E-03	1.00E-02	0	0.00000000e+000   0.0000e+000	
2710.047	172.08	2.24E-03	1.00E-02	0	0.00000000e+000   0.0000e+000	
2712.447	172.2	2.29E-03	1.00E-02	0	0.00000000e+000   0.0000e+000	
2714.848	172.31	2.29E-03	1.00E-02	0	0.00000000e+000   0.0000e+000	
2717.251	172.43	2.27E-03	1.00E-02	0	0.00000000e+000   0.0000e+000	
2719.649	172.55	2.30E-03	1.00E-02	0	0.00000000e+000   0.0000e+000	
2722.048	172.67	2.20E-03	1.00E-02	0	0.00000000e+000   0.0000e+000	
2724.449	172.78	2.19E-03	1.00E-02	0	0.00000000e+000   0.0000e+000	
2726.851	172.9	2.17E-03	1.00E-02	0	0.00000000e+000   0.0000e+000	
2729.254	173.02	2.23E-03	1.00E-02	0	0.00000000e+000   0.0000e+000	
2731.653	173.13	2.25E-03	1.00E-02	0	0.00000000e+000   0.0000e+000	
2734.053	173.25	2.22E-03	1.00E-02	0	0.00000000e+000   0.0000e+000	
2736.455	173.37	2.19E-03	1.00E-02	0	0.00000000e+000   0.0000e+000	
2738.858	173.48	2.20E-03	1.00E-02	0	0.00000000e+000   0.0000e+000	
2741.263	173.6	2.17E-03	1.00E-02	0	0.00000000e+000   0.0000e+000	
2743.654	173.72	2.24E-03	1.00E-02	0	0.00000000e+000   0.0000e+000	
2746.057	173.83	2.19E-03	1.00E-02	0	0.00000000e+000   0.0000e+000	
2748.454	173.95	2.23E-03	1.00E-02	0	0.00000000e+000   0.0000e+000	
2750.855	174.07	2.15E-03	1.00E-02	0	0.00000000e+000   0.0000e+000	
2753.258	174.18	2.20E-03	1.00E-02	0	0.00000000e+000   0.0000e+000	
2755.656	174.3	2.23E-03	1.00E-02	0	0.00000000e+000   0.0000e+000	
2758.056	174.42	2.20E-03	1.00E-02	0	0.00000000e+000   0.0000e+000	
2760.457	174.53	2.20E-03	1.00E-02	0	0.00000000e+000   0.0000e+000	
2762.858	174.65	2.25E-03	1.00E-02	0	0.00000000e+000   0.0000e+000	
2765.261	174.77	2.25E-03	1.00E-02	0	0.00000000e+000   0.0000e+000	
2767.658	174.89	2.26E-03	1.00E-02	0	0.00000000e+000   0.0000e+000	
2770.058	175	2.26E-03	1.00E-02	0	0.00000000e+000   0.0000e+000	
2772.458	175.12	2.23E-03	1.00E-02	0	0.00000000e+000   0.0000e+000	
2774.859	175.24	2.19E-03	1.00E-02	0	0.00000000e+000   0.0000e+000	
2777.265	175.35	2.18E-03	1.00E-02	0	0.00000000e+000   0.0000e+000	
2779.66	175.47	2.17E-03	1.00E-02	0	0.00000000e+000   0.0000e+000	
2782.061	175.59	2.30E-03	1.00E-02	0	0.00000000e+000   0.0000e+000	
2784.463	175.71	2.26E-03	1.00E-02	0	0.00000000e+000   0.0000e+000	
2786.866	175.82	2.27E-03	1.00E-02	0	0.00000000e+000   0.0000e+000	
2789.271	175.94	2.23E-03	1.00E-02	0	0.00000000e+000   0.0000e+000	
2791.662	176.06	2.21E-03	1.00E-02	0	0.00000000e+000   0.0000e+000	
2794.065	176.17	2.33E-03	1.00E-02	0	0.00000000e+000   0.0000e+000	
2796.47	176.29	2.23E-03	1.00E-02	0	0.00000000e+000   0.0000e+000	
2798.864	176.41	2.24E-03	1.00E-02	0	0.00000000e+000   0.0000e+000	
2801.266	176.53	2.27E-03	1.00E-02	0	0.00000000e+000   0.0000e+000	
2803.664	176.65	2.19E-03	1.00E-02	0	0.00000000e+000   0.0000e+000	
2806.064	176.76	2.24E-03	1.00E-02	0	0.00000000e+000   0.0000e+000	
2808.465	176.88	2.24E-03	1.00E-02	0	0.00000000e+000   0.0000e+000	
2810.865	177	2.18E-03	1.00E-02	0	0.00000000e+000   0.0000e+000	
2813.269	177.12	2.26E-03	1.00E-02	0	0.00000000e+000   0.0000e+000	
2815.667	177.24	2.25E-03	1.00E-02	0	0.00000000e+000   0.0000e+000	
2818.067	177.35	2.23E-03	1.00E-02	0	0.00000000e+000   0.0000e+000	
2820.468	177.47	2.29E-03	1.00E-02	0	0.00000000e+000   0.0000e+000	
2822.868	177.59	2.18E-03	1.00E-02	0	0.00000000e+000   0.0000e+000	
2825.272	177.7	2.23E-03	1.00E-02	0	0.00000000e+000   0.0000e+000	
2827.67	177.82	2.21E-03	1.00E-02	0	0.00000000e+000   0.0000e+000	
2830.069	177.94	2.15E-03	1.00E-02	0	0.00000000e+000   0.0000e+000	
2832.472	178.06	2.24E-03	1.00E-02	0	0.00000000e+000   0.0000e+000	
2834.872	178.18	2.23E-03	1.00E-02	0	0.00000000e+000   0.0000e+000	
2837.278	178.29	2.23E-03	1.00E-02	0	0.00000000e+000   0.0000e+000	
2839.677	178.42	2.21E-03	1.00E-02	0	0.00000000e+000   0.0000e+000	
2842.073	178.53	2.17E-03	1.00E-02	0	0.00000000e+000   0.0000e+000	
2844.474	178.65	2.21E-03	1.00E-02	0	0.00000000e+000   0.0000e+000	
2846.876	178.77	2.25E-03	1.00E-02	0	0.00000000e+000   0.0000e+000	
2849.276	178.89	2.21E-03	1.00E-02	0	0.00000000e+000   0.0000e+000	
2851.674	179	2.23E-03	1.00E-02	0	0.00000000e+000   0.0000e+000	
2854.074	179.12	2.25E-03	1.00E-02	0	0.00000000e+000   0.0000e+000	
2856.474	179.24	2.23E-03	1.00E-02	0	0.00000000e+000   0.0000e+000	
2858.874	179.36	2.20E-03	1.00E-02	0	0.00000000e+000   0.0000e+000	
2861.279	179.47	2.21E-03	1.00E-02	0	0.00000000e+000   0.0000e+000	
2863.676	179.59	2.22E-03	1.00E-02	0	0.00000000e+000   0.0000e+000	
2866.076	179.71	2.22E-03	1.00E-02	0	0.00000000e+000   0.0000e+000	
2868.477	179.83	2.27E-03	1.00E-02	0	0.00000000e+000   0.0000e+000	
2870.877	179.95	2.22E-03	1.00E-02	0	0.00000000e+000   0.0000e+000	
2873.281	180.06	2.22E-03	1.00E-02	0	0.00000000e+000   0.0000e+000	
2875.678	180.18	2.17E-03	1.00E-02	0	0.00000000e+000   0.0000e+000	
2878.08	180.3	2.24E-03	1.00E-02	0	0.00000000e+000   0.0000e+000	
2880.479	180.42	2.22E-03	1.00E-02	0	0.00000000e+000   0.0000e+000	
2882.881	180.53	2.27E-03	1.00E-02	0	0.00000000e+000   0.0000e+000	
2885.285	180.65	2.21E-03	1.00E-02	0	0.00000000e+000   0.0000e+000	
2887.684	180.77	2.20E-03	1.00E-02	0	0.00000000e+000   0.0000e+000	
2890.087	180.89	2.30E-03	1.00E-02	0	0.00000000e+000   0.0000e+000	
2892.482	181	2.19E-03	1.00E-02	0	0.00000000e+000   0.0000e+000	
2894.884	181.12	2.26E-03	1.00E-02	0	0.00000000e+000   0.0000e+000	
2897.289	181.23	2.25E-03	1.00E-02	0	0.00000000e+000   0.0000e+000	
2899.682	181.35	2.31E-03	1.00E-02	0	0.00000000e+000   0.0000e+000	
2902.082	181.47	2.27E-03	1.00E-02	0	0.00000000e+000   0.0000e+000	
2904.484	181.58	2.24E-03	1.00E-02	0	0.00000000e+000   0.0000e+000	
2906.885	181.7	2.30E-03	1.00E-02	0	0.00000000e+000   0.0000e+000	
2909.288	181.82	2.22E-03	1.00E-02	0	0.00000000e+000   0.0000e+000	
2911.685	181.94	2.35E-03	1.00E-02	0	0.00000000e+000   0.0000e+000	
2914.085	182.05	2.28E-03	1.00E-02	0	0.00000000e+000   0.0000e+000	
2916.485	182.17	2.29E-03	1.00E-02	0	0.00000000e+000   0.0000e+000	
2918.886	182.29	2.28E-03	1.00E-02	0	0.00000000e+000   0.0000e+000	
2921.29	182.41	2.20E-03	1.00E-02	0	0.00000000e+000   0.0000e+000	
2923.688	182.52	2.29E-03	1.00E-02	0	0.00000000e+000   0.0000e+000	
2926.087	182.64	2.28E-03	1.00E-02	0	0.00000000e+000   0.0000e+000	
2928.489	182.76	2.25E-03	1.00E-02	0	0.00000000e+000   0.0000e+000	
2930.889	182.87	2.30E-03	1.00E-02	0	0.00000000e+000   0.0000e+000	
2933.295	182.99	2.27E-03	1.00E-02	0	0.00000000e+000   0.0000e+000	
2935.694	183.11	2.24E-03	1.00E-02	0	0.00000000e+000   0.0000e+000	
2938.097	183.22	2.28E-03	1.00E-02	0	0.00000000e+000   0.0000e+000	
2940.491	183.34	2.29E-03	1.00E-02	0	0.00000000e+000   0.0000e+000	
2942.894	183.46	2.25E-03	1.00E-02	0	0.00000000e+000   0.0000e+000	
2945.302	183.58	2.27E-03	1.00E-02	0	0.00000000e+000   0.0000e+000	
2947.691	183.69	2.29E-03	1.00E-02	0	0.00000000e+000   0.0000e+000	
2950.092	183.81	2.25E-03	1.00E-02	0	0.00000000e+000   0.0000e+000	
2952.492	183.93	2.28E-03	1.00E-02	0	0.00000000e+000   0.0000e+000	
2954.894	184.05	2.29E-03	1.00E-02	0	0.00000000e+000   0.0000e+000	
2957.297	184.16	2.31E-03	1.00E-02	0	0.00000000e+000   0.0000e+000	
2959.694	184.28	2.27E-03	1.00E-02	0	0.00000000e+000   0.0000e+000	
2962.094	184.4	2.26E-03	1.00E-02	0	0.00000000e+000   0.0000e+000	
2964.494	184.51	2.24E-03	1.00E-02	0	0.00000000e+000   0.0000e+000	
2966.894	184.63	2.25E-03	1.00E-02	0	0.00000000e+000   0.0000e+000	
2969.298	184.75	2.28E-03	1.00E-02	0	0.00000000e+000   0.0000e+000	
2971.696	184.87	2.24E-03	1.00E-02	0	0.00000000e+000   0.0000e+000	
2974.099	184.98	2.25E-03	1.00E-02	0	0.00000000e+000   0.0000e+000	
2976.498	185.1	2.24E-03	1.00E-02	0	0.00000000e+000   0.0000e+000	
2978.898	185.22	2.28E-03	1.00E-02	0	0.00000000e+000   0.0000e+000	
2981.304	185.33	2.30E-03	1.00E-02	0	0.00000000e+000   0.0000e+000	
2983.703	185.45	2.28E-03	1.00E-02	0	0.00000000e+000   0.0000e+000	
2986.106	185.56	2.29E-03	1.00E-02	0	0.00000000e+000   0.0000e+000	
2988.5	185.68	2.26E-03	1.00E-02	0	0.00000000e+000   0.0000e+000	
2990.904	185.8	2.29E-03	1.00E-02	0	0.00000000e+000   0.0000e+000	
2993.309	185.91	2.32E-03	1.00E-02	0	0.00000000e+000   0.0000e+000	
2995.7	186.03	2.28E-03	1.00E-02	0	0.00000000e+000   0.0000e+000	
2998.101	186.15	2.30E-03	1.00E-02	0	0.00000000e+000   0.0000e+000	
3000.501	186.26	2.31E-03	1.00E-02	0	0.00000000e+000   0.0000e+000	
3002.901	186.38	2.33E-03	1.00E-02	0	0.00000000e+000   0.0000e+000	
3005.305	186.5	2.36E-03	1.00E-02	0	0.00000000e+000   0.0000e+000	
3007.703	186.61	2.29E-03	1.00E-02	0	0.00000000e+000   0.0000e+000	
3010.102	186.73	2.28E-03	1.00E-02	0	0.00000000e+000   0.0000e+000	
3012.503	186.85	2.28E-03	1.00E-02	0	0.00000000e+000   0.0000e+000	
3014.904	186.97	2.24E-03	1.00E-02	0	0.00000000e+000   0.0000e+000	
3017.307	187.08	2.32E-03	1.00E-02	0	0.00000000e+000   0.0000e+000	
3019.704	187.2	2.34E-03	1.00E-02	0	0.00000000e+000   0.0000e+000	
3022.105	187.31	2.28E-03	1.00E-02	0	0.00000000e+000   0.0000e+000	
3024.507	187.43	2.26E-03	1.00E-02	0	0.00000000e+000   0.0000e+000	
3026.907	187.55	2.30E-03	1.00E-02	0	0.00000000e+000   0.0000e+000	
3029.313	187.67	2.28E-03	1.00E-02	0	0.00000000e+000   0.0000e+000	
3031.709	187.78	2.31E-03	1.00E-02	0	0.00000000e+000   0.0000e+000	
3034.112	187.9	2.27E-03	1.00E-02	0	0.00000000e+000   0.0000e+000	
3036.514	188.02	2.31E-03	1.00E-02	0	0.00000000e+000   0.0000e+000	
3038.91	188.13	2.31E-03	1.00E-02	0	0.00000000e+000   0.0000e+000	
3041.314	188.25	2.32E-03	1.00E-02	0	0.00000000e+000   0.0000e+000	
3043.71	188.37	2.26E-03	1.00E-02	0	0.00000000e+000   0.0000e+000	
3046.11	188.48	2.37E-03	1.00E-02	0	0.00000000e+000   0.0000e+000	
3048.509	188.6	2.31E-03	1.00E-02	0	0.00000000e+000   0.0000e+000	
3050.91	188.72	2.33E-03	1.00E-02	0	0.00000000e+000   0.0000e+000	
3053.314	188.84	2.31E-03	1.00E-02	0	0.00000000e+000   0.0000e+000	
3055.711	188.95	2.26E-03	1.00E-02	0	0.00000000e+000   0.0000e+000	
3058.111	189.07	2.30E-03	1.00E-02	0	0.00000000e+000   0.0000e+000	
3060.513	189.18	2.31E-03	1.00E-02	0	0.00000000e+000   0.0000e+000	
3062.913	189.3	2.28E-03	1.00E-02	0	0.00000000e+000   0.0000e+000	
3065.317	189.42	2.55E-03	1.00E-02	0	0.00000000e+000   0.0000e+000	
3067.714	189.54	2.34E-03	1.00E-02	0	0.00000000e+000   0.0000e+000	
3070.116	189.65	2.33E-03	1.00E-02	0	0.00000000e+000   0.0000e+000	
3072.514	189.77	2.32E-03	1.00E-02	0	0.00000000e+000   0.0000e+000	
3074.917	189.89	2.36E-03	1.00E-02	0	0.00000000e+000   0.0000e+000	
3077.32	190.01	2.35E-03	1.00E-02	0	0.00000000e+000   0.0000e+000	
3079.72	190.12	2.32E-03	1.00E-02	0	0.00000000e+000   0.0000e+000	
3082.122	190.24	2.32E-03	1.00E-02	0	0.00000000e+000   0.0000e+000	
3084.525	190.36	2.31E-03	1.00E-02	0	0.00000000e+000   0.0000e+000	
3086.919	190.47	2.37E-03	1.00E-02	0	0.00000000e+000   0.0000e+000	
3089.325	190.59	2.33E-03	1.00E-02	0	0.00000000e+000   0.0000e+000	
3091.718	190.71	2.31E-03	1.00E-02	0	0.00000000e+000   0.0000e+000	
3094.118	190.83	2.31E-03	1.00E-02	0	0.00000000e+000   0.0000e+000	
3096.519	190.94	2.29E-03	1.00E-02	0	0.00000000e+000   0.0000e+000	
3098.92	191.06	2.34E-03	1.00E-02	0	0.00000000e+000   0.0000e+000	
3101.323	191.18	2.33E-03	1.00E-02	0	0.00000000e+000   0.0000e+000	
3103.721	191.3	2.36E-03	1.00E-02	0	0.00000000e+000   0.0000e+000	
3106.12	191.41	2.36E-03	1.00E-02	0	0.00000000e+000   0.0000e+000	
3108.521	191.53	2.35E-03	1.00E-02	0	0.00000000e+000   0.0000e+000	
3110.921	191.65	2.36E-03	1.00E-02	0	0.00000000e+000   0.0000e+000	
3113.326	191.77	2.35E-03	1.00E-02	0	0.00000000e+000   0.0000e+000	
3115.724	191.89	2.35E-03	1.00E-02	0	0.00000000e+000   0.0000e+000	
3118.126	192.01	2.33E-03	1.00E-02	0	0.00000000e+000   0.0000e+000	
3120.525	192.12	2.32E-03	1.00E-02	0	0.00000000e+000   0.0000e+000	
3122.924	192.24	2.34E-03	1.00E-02	0	0.00000000e+000   0.0000e+000	
3125.33	192.36	2.37E-03	1.00E-02	0	0.00000000e+000   0.0000e+000	
3127.729	192.48	2.32E-03	1.00E-02	0	0.00000000e+000   0.0000e+000	
3130.132	192.6	2.37E-03	1.00E-02	0	0.00000000e+000   0.0000e+000	
3132.527	192.71	2.31E-03	1.00E-02	0	0.00000000e+000   0.0000e+000	
3134.929	192.83	2.33E-03	1.00E-02	0	0.00000000e+000   0.0000e+000	
3137.335	192.95	2.31E-03	1.00E-02	0	0.00000000e+000   0.0000e+000	
3139.728	193.07	2.38E-03	1.00E-02	0	0.00000000e+000   0.0000e+000	
3142.128	193.18	2.41E-03	1.00E-02	0	0.00000000e+000   0.0000e+000	
3144.529	193.3	2.33E-03	1.00E-02	0	0.00000000e+000   0.0000e+000	
3146.93	193.42	2.39E-03	1.00E-02	0	0.00000000e+000   0.0000e+000	
3149.334	193.54	2.38E-03	1.00E-02	0	0.00000000e+000   0.0000e+000	
3151.73	193.66	2.40E-03	1.00E-02	0	0.00000000e+000   0.0000e+000	
3154.131	193.78	2.37E-03	1.00E-02	0	0.00000000e+000   0.0000e+000	
3156.531	193.89	2.33E-03	1.00E-02	0	0.00000000e+000   0.0000e+000	
3158.932	194.01	2.36E-03	1.00E-02	0	0.00000000e+000   0.0000e+000	
3161.336	194.13	2.40E-03	1.00E-02	0	0.00000000e+000   0.0000e+000	
3163.732	194.25	2.40E-03	1.00E-02	0	0.00000000e+000   0.0000e+000	
3166.133	194.37	2.39E-03	1.00E-02	0	0.00000000e+000   0.0000e+000	
3168.536	194.49	2.38E-03	1.00E-02	0	0.00000000e+000   0.0000e+000	
3170.935	194.6	2.39E-03	1.00E-02	0	0.00000000e+000   0.0000e+000	
3173.34	194.72	2.40E-03	1.00E-02	0	0.00000000e+000   0.0000e+000	
3175.736	194.84	2.31E-03	1.00E-02	0	0.00000000e+000   0.0000e+000	
3178.139	194.96	2.35E-03	1.00E-02	0	0.00000000e+000   0.0000e+000	
3180.541	195.07	2.38E-03	1.00E-02	0	0.00000000e+000   0.0000e+000	
3182.938	195.19	2.38E-03	1.00E-02	0	0.00000000e+000   0.0000e+000	
3185.343	195.31	2.35E-03	1.00E-02	0	0.00000000e+000   0.0000e+000	
3187.742	195.43	2.36E-03	1.00E-02	0	0.00000000e+000   0.0000e+000	
3190.138	195.55	2.33E-03	1.00E-02	0	0.00000000e+000   0.0000e+000	
3192.538	195.67	2.35E-03	1.00E-02	0	0.00000000e+000   0.0000e+000	
3194.938	195.78	2.37E-03	1.00E-02	0	0.00000000e+000   0.0000e+000	
3197.341	195.9	2.32E-03	1.00E-02	0	0.00000000e+000   0.0000e+000	
3199.74	196.02	2.35E-03	1.00E-02	0	0.00000000e+000   0.0000e+000	
3202.14	196.14	2.34E-03	1.00E-02	0	0.00000000e+000   0.0000e+000	
3204.541	196.26	2.40E-03	1.00E-02	0	0.00000000e+000   0.0000e+000	
3206.941	196.37	2.36E-03	1.00E-02	0	0.00000000e+000   0.0000e+000	
3209.344	196.49	2.38E-03	1.00E-02	0	0.00000000e+000   0.0000e+000	
3211.741	196.61	2.34E-03	1.00E-02	0	0.00000000e+000   0.0000e+000	
3214.141	196.73	2.34E-03	1.00E-02	0	0.00000000e+000   0.0000e+000	
3216.542	196.85	2.41E-03	1.00E-02	0	0.00000000e+000   0.0000e+000	
3218.945	196.97	2.41E-03	1.00E-02	0	0.00000000e+000   0.0000e+000	
3221.348	197.08	2.33E-03	1.00E-02	0	0.00000000e+000   0.0000e+000	
3223.746	197.2	2.33E-03	1.00E-02	0	0.00000000e+000   0.0000e+000	
3226.146	197.32	2.37E-03	1.00E-02	0	0.00000000e+000   0.0000e+000	
3228.548	197.44	2.35E-03	1.00E-02	0	0.00000000e+000   0.0000e+000	
3230.951	197.56	2.37E-03	1.00E-02	0	0.00000000e+000   0.0000e+000	
3233.356	197.67	2.42E-03	1.00E-02	0	0.00000000e+000   0.0000e+000	
3235.748	197.79	2.43E-03	1.00E-02	0	0.00000000e+000   0.0000e+000	
3238.151	197.91	2.49E-03	1.00E-02	0	0.00000000e+000   0.0000e+000	
3240.547	198.03	2.44E-03	1.00E-02	0	0.00000000e+000   0.0000e+000	
3242.947	198.15	2.42E-03	1.00E-02	0	0.00000000e+000   0.0000e+000	
3245.352	198.26	2.47E-03	1.00E-02	0	0.00000000e+000   0.0000e+000	
3247.748	198.38	2.48E-03	1.00E-02	0	0.00000000e+000   0.0000e+000	
3250.148	198.5	2.42E-03	1.00E-02	0	0.00000000e+000   0.0000e+000	
3252.549	198.62	2.44E-03	1.00E-02	0	0.00000000e+000   0.0000e+000	
3254.95	198.74	2.48E-03	1.00E-02	0	0.00000000e+000   0.0000e+000	
3257.354	198.86	2.41E-03	1.00E-02	0	0.00000000e+000   0.0000e+000	
3259.75	198.97	2.48E-03	1.00E-02	0	0.00000000e+000   0.0000e+000	
3262.151	199.09	2.39E-03	1.00E-02	0	0.00000000e+000   0.0000e+000	
3264.552	199.21	2.39E-03	1.00E-02	0	0.00000000e+000   0.0000e+000	
3266.952	199.33	2.39E-03	1.00E-02	0	0.00000000e+000   0.0000e+000	
3269.358	199.45	2.44E-03	1.00E-02	0	0.00000000e+000   0.0000e+000	
3271.754	199.57	2.37E-03	1.00E-02	0	0.00000000e+000   0.0000e+000	
3274.157	199.68	2.43E-03	1.00E-02	0	0.00000000e+000   0.0000e+000	
3276.559	199.8	2.41E-03	1.00E-02	0	0.00000000e+000   0.0000e+000	
3278.961	199.92	2.43E-03	1.00E-02	0	0.00000000e+000   0.0000e+000	
3281.359	200.04	2.42E-03	1.00E-02	0	0.00000000e+000   0.0000e+000	
3283.758	200.15	2.46E-03	1.00E-02	0	0.00000000e+000   0.0000e+000	
3286.155	200.27	2.41E-03	1.00E-02	0	0.00000000e+000   0.0000e+000	
3288.557	200.39	2.45E-03	1.00E-02	0	0.00000000e+000   0.0000e+000	
3290.957	200.51	2.42E-03	1.00E-02	0	0.00000000e+000   0.0000e+000	
3293.36	200.62	2.46E-03	1.00E-02	0	0.00000000e+000   0.0000e+000	
3295.758	200.74	2.43E-03	1.00E-02	0	0.00000000e+000   0.0000e+000	
3298.157	200.86	2.49E-03	1.00E-02	0	0.00000000e+000   0.0000e+000	
3300.558	200.97	2.45E-03	1.00E-02	0	0.00000000e+000   0.0000e+000	
3302.959	201.09	2.45E-03	1.00E-02	0	0.00000000e+000   0.0000e+000	
3305.363	201.21	2.45E-03	1.00E-02	0	0.00000000e+000   0.0000e+000	
3307.76	201.33	2.46E-03	1.00E-02	0	0.00000000e+000   0.0000e+000	
3310.161	201.44	2.46E-03	1.00E-02	0	0.00000000e+000   0.0000e+000	
3312.561	201.56	2.44E-03	1.00E-02	0	0.00000000e+000   0.0000e+000	
3314.963	201.68	2.43E-03	1.00E-02	0	0.00000000e+000   0.0000e+000	
3317.365	201.8	2.49E-03	1.00E-02	0	0.00000000e+000   0.0000e+000	
3319.764	201.91	2.44E-03	1.00E-02	0	0.00000000e+000   0.0000e+000	
3322.165	202.03	2.49E-03	1.00E-02	0	0.00000000e+000   0.0000e+000	
3324.567	202.15	2.48E-03	1.00E-02	0	0.00000000e+000   0.0000e+000	
3326.97	202.26	2.42E-03	1.00E-02	0	0.00000000e+000   0.0000e+000	
3329.369	202.38	2.44E-03	1.00E-02	0	0.00000000e+000   0.0000e+000	
3331.767	202.5	2.43E-03	1.00E-02	0	0.00000000e+000   0.0000e+000	
3334.169	202.62	2.45E-03	1.00E-02	0	0.00000000e+000   0.0000e+000	
3336.564	202.73	2.44E-03	1.00E-02	0	0.00000000e+000   0.0000e+000	
3338.964	202.85	2.51E-03	1.00E-02	0	0.00000000e+000   0.0000e+000	
3341.37	202.97	2.41E-03	1.00E-02	0	0.00000000e+000   0.0000e+000	
3343.767	203.08	2.46E-03	1.00E-02	0	0.00000000e+000   0.0000e+000	
3346.166	203.2	2.46E-03	1.00E-02	0	0.00000000e+000   0.0000e+000	
3348.567	203.32	2.47E-03	1.00E-02	0	0.00000000e+000   0.0000e+000	
3350.968	203.44	2.48E-03	1.00E-02	0	0.00000000e+000   0.0000e+000	
3353.371	203.55	2.49E-03	1.00E-02	0	0.00000000e+000   0.0000e+000	
3355.768	203.67	2.41E-03	1.00E-02	0	0.00000000e+000   0.0000e+000	
3358.17	203.79	2.43E-03	1.00E-02	0	0.00000000e+000   0.0000e+000	
3360.57	203.91	2.48E-03	1.00E-02	0	0.00000000e+000   0.0000e+000	
3362.972	204.02	2.48E-03	1.00E-02	0	0.00000000e+000   0.0000e+000	
3365.374	204.14	2.47E-03	1.00E-02	0	0.00000000e+000   0.0000e+000	
3367.772	204.26	2.46E-03	1.00E-02	0	0.00000000e+000   0.0000e+000	
3370.173	204.37	2.48E-03	1.00E-02	0	0.00000000e+000   0.0000e+000	
3372.575	204.49	2.42E-03	1.00E-02	0	0.00000000e+000   0.0000e+000	
3374.978	204.61	2.44E-03	1.00E-02	0	0.00000000e+000   0.0000e+000	
3377.377	204.73	2.49E-03	1.00E-02	0	0.00000000e+000   0.0000e+000	
3379.775	204.84	2.44E-03	1.00E-02	0	0.00000000e+000   0.0000e+000	
3382.173	204.96	2.42E-03	1.00E-02	0	0.00000000e+000   0.0000e+000	
3384.573	205.08	2.48E-03	1.00E-02	0	0.00000000e+000   0.0000e+000	
3386.973	205.19	2.46E-03	1.00E-02	0	0.00000000e+000   0.0000e+000	
3389.377	205.31	2.47E-03	1.00E-02	0	0.00000000e+000   0.0000e+000	
3391.776	205.43	2.50E-03	1.00E-02	0	0.00000000e+000   0.0000e+000	
3394.176	205.54	2.49E-03	1.00E-02	0	0.00000000e+000   0.0000e+000	
3396.576	205.66	2.47E-03	1.00E-02	0	0.00000000e+000   0.0000e+000	
3398.976	205.78	2.48E-03	1.00E-02	0	0.00000000e+000   0.0000e+000	
3401.38	205.89	2.41E-03	1.00E-02	0	0.00000000e+000   0.0000e+000	
3403.777	206.01	2.44E-03	1.00E-02	0	0.00000000e+000   0.0000e+000	
3406.177	206.13	2.44E-03	1.00E-02	0	0.00000000e+000   0.0000e+000	
3408.579	206.25	2.50E-03	1.00E-02	0	0.00000000e+000   0.0000e+000	
3410.979	206.36	2.48E-03	1.00E-02	0	0.00000000e+000   0.0000e+000	
3413.385	206.48	2.50E-03	1.00E-02	0	0.00000000e+000   0.0000e+000	
3415.781	206.6	2.46E-03	1.00E-02	0	0.00000000e+000   0.0000e+000	
3418.183	206.71	2.48E-03	1.00E-02	0	0.00000000e+000   0.0000e+000	
3420.586	206.83	2.44E-03	1.00E-02	0	0.00000000e+000   0.0000e+000	
3422.988	206.95	2.52E-03	1.00E-02	0	0.00000000e+000   0.0000e+000	
3425.386	207.06	2.49E-03	1.00E-02	0	0.00000000e+000   0.0000e+000	
3427.786	207.18	2.52E-03	1.00E-02	0	0.00000000e+000   0.0000e+000	
3430.182	207.3	2.46E-03	1.00E-02	0	0.00000000e+000   0.0000e+000	
3432.582	207.41	2.46E-03	1.00E-02	0	0.00000000e+000   0.0000e+000	
3434.983	207.53	2.51E-03	1.00E-02	0	0.00000000e+000   0.0000e+000	
3437.386	207.65	2.55E-03	1.00E-02	0	0.00000000e+000   0.0000e+000	
3439.784	207.77	2.49E-03	1.00E-02	0	0.00000000e+000   0.0000e+000	
3442.184	207.88	2.55E-03	1.00E-02	0	0.00000000e+000   0.0000e+000	
3444.586	208	2.54E-03	1.00E-02	0	0.00000000e+000   0.0000e+000	
3446.986	208.12	2.49E-03	1.00E-02	0	0.00000000e+000   0.0000e+000	
3449.389	208.23	2.49E-03	1.00E-02	0	0.00000000e+000   0.0000e+000	
3451.786	208.35	2.50E-03	1.00E-02	0	0.00000000e+000   0.0000e+000	
3454.187	208.47	2.48E-03	1.00E-02	0	0.00000000e+000   0.0000e+000	
3456.588	208.58	2.46E-03	1.00E-02	0	0.00000000e+000   0.0000e+000	
3458.987	208.7	2.48E-03	1.00E-02	0	0.00000000e+000   0.0000e+000	
3461.392	208.82	2.50E-03	1.00E-02	0	0.00000000e+000   0.0000e+000	
3463.789	208.94	2.43E-03	1.00E-02	0	0.00000000e+000   0.0000e+000	
3466.191	209.05	2.53E-03	1.00E-02	0	0.00000000e+000   0.0000e+000	
3468.594	209.17	2.53E-03	1.00E-02	0	0.00000000e+000   0.0000e+000	
3470.996	209.29	2.50E-03	1.00E-02	0	0.00000000e+000   0.0000e+000	
3473.394	209.4	2.48E-03	1.00E-02	0	0.00000000e+000   0.0000e+000	
3475.793	209.52	2.52E-03	1.00E-02	0	0.00000000e+000   0.0000e+000	
3478.198	209.64	2.44E-03	1.00E-02	0	0.00000000e+000   0.0000e+000	
3480.592	209.75	2.49E-03	1.00E-02	0	0.00000000e+000   0.0000e+000	
3482.993	209.87	2.43E-03	1.00E-02	0	0.00000000e+000   0.0000e+000	
3485.395	209.99	2.44E-03	1.00E-02	0	0.00000000e+000   0.0000e+000	
3487.793	210.11	2.44E-03	1.00E-02	0	0.00000000e+000   0.0000e+000	
3490.193	210.23	2.48E-03	1.00E-02	0	0.00000000e+000   0.0000e+000	
3492.594	210.35	2.46E-03	1.00E-02	0	0.00000000e+000   0.0000e+000	
3494.994	210.47	2.53E-03	1.00E-02	0	0.00000000e+000   0.0000e+000	
3497.398	210.59	2.54E-03	1.00E-02	0	0.00000000e+000   0.0000e+000	
3499.795	210.7	2.53E-03	1.00E-02	0	0.00000000e+000   0.0000e+000	
3502.194	210.82	2.53E-03	1.00E-02	0	0.00000000e+000   0.0000e+000	
3504.595	210.94	2.50E-03	1.00E-02	0	0.00000000e+000   0.0000e+000	
3506.996	211.06	2.48E-03	1.00E-02	0	0.00000000e+000   0.0000e+000	
3509.402	211.18	2.52E-03	1.00E-02	0	0.00000000e+000   0.0000e+000	
3511.797	211.3	2.47E-03	1.00E-02	0	0.00000000e+000   0.0000e+000	
3514.198	211.42	2.51E-03	1.00E-02	0	0.00000000e+000   0.0000e+000	
3516.6	211.54	2.43E-03	1.00E-02	0	0.00000000e+000   0.0000e+000	
3519.003	211.65	2.49E-03	1.00E-02	0	0.00000000e+000   0.0000e+000	
3521.408	211.77	2.49E-03	1.00E-02	0	0.00000000e+000   0.0000e+000	
3523.801	211.89	2.49E-03	1.00E-02	0	0.00000000e+000   0.0000e+000	
3526.202	212.01	2.50E-03	1.00E-02	0	0.00000000e+000   0.0000e+000	
3528.605	212.13	2.52E-03	1.00E-02	0	0.00000000e+000   0.0000e+000	
3531	212.25	2.51E-03	1.00E-02	0	0.00000000e+000   0.0000e+000	
3533.405	212.37	2.49E-03	1.00E-02	0	0.00000000e+000   0.0000e+000	
3535.802	212.49	2.46E-03	1.00E-02	0	0.00000000e+000   0.0000e+000	
3538.203	212.61	2.51E-03	1.00E-02	0	0.00000000e+000   0.0000e+000	
3540.602	212.73	2.47E-03	1.00E-02	0	0.00000000e+000   0.0000e+000	
3543.003	212.85	2.54E-03	1.00E-02	0	0.00000000e+000   0.0000e+000	
3545.406	212.97	2.52E-03	1.00E-02	0	0.00000000e+000   0.0000e+000	
3547.802	213.08	2.54E-03	1.00E-02	0	0.00000000e+000   0.0000e+000	
3550.205	213.2	2.51E-03	1.00E-02	0	0.00000000e+000   0.0000e+000	
3552.604	213.32	2.52E-03	1.00E-02	0	0.00000000e+000   0.0000e+000	
3555.005	213.44	2.48E-03	1.00E-02	0	0.00000000e+000   0.0000e+000	
3557.409	213.56	2.46E-03	1.00E-02	0	0.00000000e+000   0.0000e+000	
3559.808	213.68	2.55E-03	1.00E-02	0	0.00000000e+000   0.0000e+000	
3562.207	213.8	2.45E-03	1.00E-02	0	0.00000000e+000   0.0000e+000	
3564.607	213.92	2.54E-03	1.00E-02	0	0.00000000e+000   0.0000e+000	
3567.01	214.04	2.47E-03	1.00E-02	0	0.00000000e+000   0.0000e+000	
3569.416	214.16	2.51E-03	1.00E-02	0	0.00000000e+000   0.0000e+000	
3571.815	214.28	2.55E-03	1.00E-02	0	0.00000000e+000   0.0000e+000	
3574.21	214.39	2.55E-03	1.00E-02	0	0.00000000e+000   0.0000e+000	
3576.612	214.51	2.57E-03	1.00E-02	0	0.00000000e+000   0.0000e+000	
3579.014	214.63	2.57E-03	1.00E-02	0	0.00000000e+000   0.0000e+000	
3581.413	214.75	2.53E-03	1.00E-02	0	0.00000000e+000   0.0000e+000	
3583.81	214.87	2.56E-03	1.00E-02	0	0.00000000e+000   0.0000e+000	
3586.211	214.99	2.55E-03	1.00E-02	0	0.00000000e+000   0.0000e+000	
3588.612	215.11	2.54E-03	1.00E-02	0	0.00000000e+000   0.0000e+000	
3591.012	215.22	2.52E-03	1.00E-02	0	0.00000000e+000   0.0000e+000	
3593.416	215.34	2.52E-03	1.00E-02	0	0.00000000e+000   0.0000e+000	
3595.813	215.46	2.55E-03	1.00E-02	0	0.00000000e+000   0.0000e+000	
3598.213	215.57	2.51E-03	1.00E-02	0	0.00000000e+000   0.0000e+000	
3600.613	215.69	2.48E-03	1.00E-02	0	0.00000000e+000   0.0000e+000	
3603.015	215.81	2.50E-03	1.00E-02	0	0.00000000e+000   0.0000e+000	
3605.42	215.92	2.57E-03	1.00E-02	0	0.00000000e+000   0.0000e+000	
3607.816	216.04	2.53E-03	1.00E-02	0	0.00000000e+000   0.0000e+000	
3610.218	216.16	2.51E-03	1.00E-02	0	0.00000000e+000   0.0000e+000	
3612.617	216.27	2.55E-03	1.00E-02	0	0.00000000e+000   0.0000e+000	
3615.02	216.39	2.49E-03	1.00E-02	0	0.00000000e+000   0.0000e+000	
3617.425	216.51	2.51E-03	1.00E-02	0	0.00000000e+000   0.0000e+000	
3619.826	216.62	2.50E-03	1.00E-02	0	0.00000000e+000   0.0000e+000	
3622.219	216.74	2.54E-03	1.00E-02	0	0.00000000e+000   0.0000e+000	
3624.622	216.85	2.49E-03	1.00E-02	0	0.00000000e+000   0.0000e+000	
3627.019	216.97	2.50E-03	1.00E-02	0	0.00000000e+000   0.0000e+000	
3629.422	217.09	2.52E-03	1.00E-02	0	0.00000000e+000   0.0000e+000	
3631.819	217.2	2.53E-03	1.00E-02	0	0.00000000e+000   0.0000e+000	
3634.22	217.32	2.54E-03	1.00E-02	0	0.00000000e+000   0.0000e+000	
3636.621	217.43	2.55E-03	1.00E-02	0	0.00000000e+000   0.0000e+000	
3639.021	217.55	2.49E-03	1.00E-02	0	0.00000000e+000   0.0000e+000	
3641.425	217.67	2.53E-03	1.00E-02	0	0.00000000e+000   0.0000e+000	
3643.822	217.78	2.54E-03	1.00E-02	0	0.00000000e+000   0.0000e+000	
3646.222	217.9	2.56E-03	1.00E-02	0	0.00000000e+000   0.0000e+000	
3648.622	218.02	2.55E-03	1.00E-02	0	0.00000000e+000   0.0000e+000	
3651.023	218.13	2.54E-03	1.00E-02	0	0.00000000e+000   0.0000e+000	
3653.427	218.25	2.54E-03	1.00E-02	0	0.00000000e+000   0.0000e+000	
3655.827	218.37	2.51E-03	1.00E-02	0	0.00000000e+000   0.0000e+000	
3658.226	218.48	2.54E-03	1.00E-02	0	0.00000000e+000   0.0000e+000	
3660.626	218.6	2.54E-03	1.00E-02	0	0.00000000e+000   0.0000e+000	
3663.029	218.71	2.58E-03	1.00E-02	0	0.00000000e+000   0.0000e+000	
3665.434	218.83	2.53E-03	1.00E-02	0	0.00000000e+000   0.0000e+000	
3667.833	218.94	2.59E-03	1.00E-02	0	0.00000000e+000   0.0000e+000	
3670.229	219.06	2.53E-03	1.00E-02	0	0.00000000e+000   0.0000e+000	
3672.631	219.18	2.58E-03	1.00E-02	0	0.00000000e+000   0.0000e+000	
3675.028	219.3	2.55E-03	1.00E-02	0	0.00000000e+000   0.0000e+000	
3677.432	219.41	2.56E-03	1.00E-02	0	0.00000000e+000   0.0000e+000	
3679.83	219.53	2.57E-03	1.00E-02	0	0.00000000e+000   0.0000e+000	
3682.23	219.65	2.55E-03	1.00E-02	0	0.00000000e+000   0.0000e+000	
3684.63	219.76	2.55E-03	1.00E-02	0	0.00000000e+000   0.0000e+000	
3687.03	219.88	2.57E-03	1.00E-02	0	0.00000000e+000   0.0000e+000	
3689.435	220	2.59E-03	1.00E-02	0	0.00000000e+000   0.0000e+000	
3691.832	220.12	2.56E-03	1.00E-02	0	0.00000000e+000   0.0000e+000	
3694.232	220.23	2.56E-03	1.00E-02	0	0.00000000e+000   0.0000e+000	
3696.633	220.35	2.55E-03	1.00E-02	0	0.00000000e+000   0.0000e+000	
3699.033	220.47	2.54E-03	1.00E-02	0	0.00000000e+000   0.0000e+000	
3701.439	220.59	2.57E-03	1.00E-02	0	0.00000000e+000   0.0000e+000	
3703.834	220.71	2.57E-03	1.00E-02	0	0.00000000e+000   0.0000e+000	
3706.234	220.83	2.56E-03	1.00E-02	0	0.00000000e+000   0.0000e+000	
3708.637	220.95	2.59E-03	1.00E-02	0	0.00000000e+000   0.0000e+000	
3711.04	221.07	2.56E-03	1.00E-02	0	0.00000000e+000   0.0000e+000	
3713.446	221.18	2.53E-03	1.00E-02	0	0.00000000e+000   0.0000e+000	
3715.837	221.3	2.61E-03	1.00E-02	0	0.00000000e+000   0.0000e+000	
3718.239	221.42	2.58E-03	1.00E-02	0	0.00000000e+000   0.0000e+000	
3720.636	221.54	2.54E-03	1.00E-02	0	0.00000000e+000   0.0000e+000	
3723.037	221.66	2.57E-03	1.00E-02	0	0.00000000e+000   0.0000e+000	
3725.441	221.77	2.58E-03	1.00E-02	0	0.00000000e+000   0.0000e+000	
3727.838	221.89	2.55E-03	1.00E-02	0	0.00000000e+000   0.0000e+000	
3730.239	222.01	2.54E-03	1.00E-02	0	0.00000000e+000   0.0000e+000	
3732.64	222.13	2.55E-03	1.00E-02	0	0.00000000e+000   0.0000e+000	
3735.039	222.25	2.56E-03	1.00E-02	0	0.00000000e+000   0.0000e+000	
3737.443	222.37	2.58E-03	1.00E-02	0	0.00000000e+000   0.0000e+000	
3739.84	222.49	2.57E-03	1.00E-02	0	0.00000000e+000   0.0000e+000	
3742.242	222.61	2.56E-03	1.00E-02	0	0.00000000e+000   0.0000e+000	
3744.642	222.73	2.60E-03	1.00E-02	0	0.00000000e+000   0.0000e+000	
3747.043	222.85	2.54E-03	1.00E-02	0	0.00000000e+000   0.0000e+000	
3749.445	222.96	2.59E-03	1.00E-02	0	0.00000000e+000   0.0000e+000	
3751.844	223.08	2.53E-03	1.00E-02	0	0.00000000e+000   0.0000e+000	
3754.243	223.2	2.57E-03	1.00E-02	0	0.00000000e+000   0.0000e+000	
3756.643	223.32	2.54E-03	1.00E-02	0	0.00000000e+000   0.0000e+000	
3759.047	223.44	2.59E-03	1.00E-02	0	0.00000000e+000   0.0000e+000	
3761.452	223.56	2.52E-03	1.00E-02	0	0.00000000e+000   0.0000e+000	
3763.852	223.68	2.51E-03	1.00E-02	0	0.00000000e+000   0.0000e+000	
3766.247	223.79	2.52E-03	1.00E-02	0	0.00000000e+000   0.0000e+000	
3768.648	223.91	2.56E-03	1.00E-02	0	0.00000000e+000   0.0000e+000	
3771.051	224.03	2.58E-03	1.00E-02	0	0.00000000e+000   0.0000e+000	
3773.45	224.15	2.59E-03	1.00E-02	0	0.00000000e+000   0.0000e+000	
3775.847	224.27	2.60E-03	1.00E-02	0	0.00000000e+000   0.0000e+000	
3778.248	224.39	2.57E-03	1.00E-02	0	0.00000000e+000   0.0000e+000	
3780.648	224.51	2.59E-03	1.00E-02	0	0.00000000e+000   0.0000e+000	
3783.049	224.63	2.59E-03	1.00E-02	0	0.00000000e+000   0.0000e+000	
3785.452	224.74	2.54E-03	1.00E-02	0	0.00000000e+000   0.0000e+000	
3787.849	224.86	2.58E-03	1.00E-02	0	0.00000000e+000   0.0000e+000	
3790.249	224.98	2.61E-03	1.00E-02	0	0.00000000e+000   0.0000e+000	
3792.65	225.1	2.60E-03	1.00E-02	0	0.00000000e+000   0.0000e+000	
3795.051	225.22	2.58E-03	1.00E-02	0	0.00000000e+000   0.0000e+000	
3797.454	225.34	2.62E-03	1.00E-02	0	0.00000000e+000   0.0000e+000	
3799.853	225.45	2.56E-03	1.00E-02	0	0.00000000e+000   0.0000e+000	
3802.252	225.57	2.57E-03	1.00E-02	0	0.00000000e+000   0.0000e+000	
3804.654	225.69	2.57E-03	1.00E-02	0	0.00000000e+000   0.0000e+000	
3807.054	225.81	2.56E-03	1.00E-02	0	0.00000000e+000   0.0000e+000	
3809.46	225.92	2.57E-03	1.00E-02	0	0.00000000e+000   0.0000e+000	
3811.86	226.04	2.60E-03	1.00E-02	0	0.00000000e+000   0.0000e+000	
3814.256	226.16	2.59E-03	1.00E-02	0	0.00000000e+000   0.0000e+000	
3816.657	226.27	2.58E-03	1.00E-02	0	0.00000000e+000   0.0000e+000	
3819.059	226.39	2.60E-03	1.00E-02	0	0.00000000e+000   0.0000e+000	
3821.458	226.51	2.54E-03	1.00E-02	0	0.00000000e+000   0.0000e+000	
3823.856	226.63	2.61E-03	1.00E-02	0	0.00000000e+000   0.0000e+000	
3826.256	226.74	2.57E-03	1.00E-02	0	0.00000000e+000   0.0000e+000	
3828.656	226.86	2.59E-03	1.00E-02	0	0.00000000e+000   0.0000e+000	
3831.057	226.98	2.57E-03	1.00E-02	0	0.00000000e+000   0.0000e+000	
3833.461	227.1	2.61E-03	1.00E-02	0	0.00000000e+000   0.0000e+000	
3835.858	227.21	2.63E-03	1.00E-02	0	0.00000000e+000   0.0000e+000	
3838.258	227.33	2.58E-03	1.00E-02	0	0.00000000e+000   0.0000e+000	
3840.659	227.45	2.64E-03	1.00E-02	0	0.00000000e+000   0.0000e+000	
3843.059	227.56	2.62E-03	1.00E-02	0	0.00000000e+000   0.0000e+000	
3845.463	227.68	2.60E-03	1.00E-02	0	0.00000000e+000   0.0000e+000	
3847.861	227.8	2.60E-03	1.00E-02	0	0.00000000e+000   0.0000e+000	
3850.262	227.92	2.63E-03	1.00E-02	0	0.00000000e+000   0.0000e+000	
3852.662	228.03	2.60E-03	1.00E-02	0	0.00000000e+000   0.0000e+000	
3855.065	228.15	2.65E-03	1.00E-02	0	0.00000000e+000   0.0000e+000	
3857.47	228.27	2.58E-03	1.00E-02	0	0.00000000e+000   0.0000e+000	
3859.87	228.38	2.65E-03	1.00E-02	0	0.00000000e+000   0.0000e+000	
3862.263	228.5	2.58E-03	1.00E-02	0	0.00000000e+000   0.0000e+000	
3864.667	228.62	2.60E-03	1.00E-02	0	0.00000000e+000   0.0000e+000	
3867.063	228.73	2.59E-03	1.00E-02	0	0.00000000e+000   0.0000e+000	
3869.467	228.85	2.62E-03	1.00E-02	0	0.00000000e+000   0.0000e+000	
3871.865	228.97	2.55E-03	1.00E-02	0	0.00000000e+000   0.0000e+000	
3874.264	229.09	2.58E-03	1.00E-02	0	0.00000000e+000   0.0000e+000	
3876.666	229.2	2.60E-03	1.00E-02	0	0.00000000e+000   0.0000e+000	
3879.066	229.32	2.58E-03	1.00E-02	0	0.00000000e+000   0.0000e+000	
3881.47	229.44	2.57E-03	1.00E-02	0	0.00000000e+000   0.0000e+000	
3883.867	229.56	2.55E-03	1.00E-02	0	0.00000000e+000   0.0000e+000	
3886.268	229.67	2.56E-03	1.00E-02	0	0.00000000e+000   0.0000e+000	
3888.668	229.79	2.59E-03	1.00E-02	0	0.00000000e+000   0.0000e+000	
3891.068	229.91	2.60E-03	1.00E-02	0	0.00000000e+000   0.0000e+000	
3893.472	230.03	2.61E-03	1.00E-02	0	0.00000000e+000   0.0000e+000	
3895.871	230.14	2.55E-03	1.00E-02	0	0.00000000e+000   0.0000e+000	
3898.27	230.26	2.58E-03	1.00E-02	0	0.00000000e+000   0.0000e+000	
3900.671	230.37	2.58E-03	1.00E-02	0	0.00000000e+000   0.0000e+000	
3903.074	230.49	2.60E-03	1.00E-02	0	0.00000000e+000   0.0000e+000	
3905.479	230.61	2.56E-03	1.00E-02	0	0.00000000e+000   0.0000e+000	
3907.878	230.72	2.58E-03	1.00E-02	0	0.00000000e+000   0.0000e+000	
3910.272	230.84	2.62E-03	1.00E-02	0	0.00000000e+000   0.0000e+000	
3912.675	230.95	2.58E-03	1.00E-02	0	0.00000000e+000   0.0000e+000	
3915.075	231.07	2.61E-03	1.00E-02	0	0.00000000e+000   0.0000e+000	
3917.477	231.19	2.57E-03	1.00E-02	0	0.00000000e+000   0.0000e+000	
3919.873	231.31	2.58E-03	1.00E-02	0	0.00000000e+000   0.0000e+000	
3922.274	231.42	2.60E-03	1.00E-02	0	0.00000000e+000   0.0000e+000	
3924.674	231.54	2.56E-03	1.00E-02	0	0.00000000e+000   0.0000e+000	
3927.075	231.65	2.57E-03	1.00E-02	0	0.00000000e+000   0.0000e+000	
3929.479	231.77	2.59E-03	1.00E-02	0	0.00000000e+000   0.0000e+000	
3931.875	231.89	2.62E-03	1.00E-02	0	0.00000000e+000   0.0000e+000	
3934.277	232	2.54E-03	1.00E-02	0	0.00000000e+000   0.0000e+000	
3936.677	232.12	2.57E-03	1.00E-02	0	0.00000000e+000   0.0000e+000	
3939.077	232.24	2.55E-03	1.00E-02	0	0.00000000e+000   0.0000e+000	
3941.483	232.35	2.56E-03	1.00E-02	0	0.00000000e+000   0.0000e+000	
3943.878	232.47	2.57E-03	1.00E-02	0	0.00000000e+000   0.0000e+000	
3946.278	232.59	2.54E-03	1.00E-02	0	0.00000000e+000   0.0000e+000	
3948.68	232.7	2.58E-03	1.00E-02	0	0.00000000e+000   0.0000e+000	
3951.083	232.82	2.54E-03	1.00E-02	0	0.00000000e+000   0.0000e+000	
3953.49	232.94	2.57E-03	1.00E-02	0	0.00000000e+000   0.0000e+000	
3955.882	233.05	2.61E-03	1.00E-02	0	0.00000000e+000   0.0000e+000	
3958.283	233.17	2.56E-03	1.00E-02	0	0.00000000e+000   0.0000e+000	
3960.686	233.28	2.60E-03	1.00E-02	0	0.00000000e+000   0.0000e+000	
3963.09	233.4	2.56E-03	1.00E-02	0	0.00000000e+000   0.0000e+000	
3965.485	233.52	2.56E-03	1.00E-02	0	0.00000000e+000   0.0000e+000	
3967.883	233.64	2.57E-03	1.00E-02	0	0.00000000e+000   0.0000e+000	
3970.284	233.75	2.59E-03	1.00E-02	0	0.00000000e+000   0.0000e+000	
3972.684	233.87	2.58E-03	1.00E-02	0	0.00000000e+000   0.0000e+000	
3975.085	233.99	2.58E-03	1.00E-02	0	0.00000000e+000   0.0000e+000	
3977.488	234.1	2.56E-03	1.00E-02	0	0.00000000e+000   0.0000e+000	
3979.885	234.22	2.55E-03	1.00E-02	0	0.00000000e+000   0.0000e+000	
3982.286	234.34	2.54E-03	1.00E-02	0	0.00000000e+000   0.0000e+000	
3984.686	234.45	2.57E-03	1.00E-02	0	0.00000000e+000   0.0000e+000	
3987.088	234.57	2.56E-03	1.00E-02	0	0.00000000e+000   0.0000e+000	
3989.491	234.69	2.59E-03	1.00E-02	0	0.00000000e+000   0.0000e+000	
3991.891	234.81	2.61E-03	1.00E-02	0	0.00000000e+000   0.0000e+000	
3994.289	234.92	2.58E-03	1.00E-02	0	0.00000000e+000   0.0000e+000	
3996.689	235.04	2.55E-03	1.00E-02	0	0.00000000e+000   0.0000e+000	
3999.091	235.16	2.59E-03	1.00E-02	0	0.00000000e+000   0.0000e+000	
4001.497	235.27	2.63E-03	1.00E-02	0	0.00000000e+000   0.0000e+000	
4003.897	235.39	2.60E-03	1.00E-02	0	0.00000000e+000   0.0000e+000	
4006.292	235.51	2.63E-03	1.00E-02	0	0.00000000e+000   0.0000e+000	
4008.694	235.62	2.60E-03	1.00E-02	0	0.00000000e+000   0.0000e+000	
4011.091	235.74	2.59E-03	1.00E-02	0	0.00000000e+000   0.0000e+000	
4013.494	235.86	2.62E-03	1.00E-02	0	0.00000000e+000   0.0000e+000	
4015.891	235.98	2.61E-03	1.00E-02	0	0.00000000e+000   0.0000e+000	
4018.291	236.09	2.57E-03	1.00E-02	0	0.00000000e+000   0.0000e+000	
4020.692	236.21	2.62E-03	1.00E-02	0	0.00000000e+000   0.0000e+000	
4023.093	236.33	2.59E-03	1.00E-02	0	0.00000000e+000   0.0000e+000	
4025.497	236.44	2.63E-03	1.00E-02	0	0.00000000e+000   0.0000e+000	
4027.894	236.56	2.61E-03	1.00E-02	0	0.00000000e+000   0.0000e+000	
4030.294	236.68	2.60E-03	1.00E-02	0	0.00000000e+000   0.0000e+000	
4032.695	236.8	2.60E-03	1.00E-02	0	0.00000000e+000   0.0000e+000	
4035.095	236.91	2.62E-03	1.00E-02	0	0.00000000e+000   0.0000e+000	
4037.499	237.03	2.66E-03	1.00E-02	0	0.00000000e+000   0.0000e+000	
4039.899	237.15	2.61E-03	1.00E-02	0	0.00000000e+000   0.0000e+000	
4042.298	237.27	2.60E-03	1.00E-02	0	0.00000000e+000   0.0000e+000	
4044.698	237.38	2.60E-03	1.00E-02	0	0.00000000e+000   0.0000e+000	
4047.1	237.5	2.65E-03	1.00E-02	0	0.00000000e+000   0.0000e+000	
4049.506	237.62	2.61E-03	1.00E-02	0	0.00000000e+000   0.0000e+000	
4051.905	237.74	2.63E-03	1.00E-02	0	0.00000000e+000   0.0000e+000	
4054.299	237.85	2.61E-03	1.00E-02	0	0.00000000e+000   0.0000e+000	
4056.703	237.97	2.63E-03	1.00E-02	0	0.00000000e+000   0.0000e+000	
4059.105	238.09	2.67E-03	1.00E-02	0	0.00000000e+000   0.0000e+000	
4061.505	238.21	2.64E-03	1.00E-02	0	0.00000000e+000   0.0000e+000	
4063.901	238.32	2.58E-03	1.00E-02	0	0.00000000e+000   0.0000e+000	
4066.301	238.44	2.67E-03	1.00E-02	0	0.00000000e+000   0.0000e+000	
4068.702	238.56	2.61E-03	1.00E-02	0	0.00000000e+000   0.0000e+000	
4071.103	238.67	2.62E-03	1.00E-02	0	0.00000000e+000   0.0000e+000	
4073.506	238.79	2.63E-03	1.00E-02	0	0.00000000e+000   0.0000e+000	
4075.904	238.91	2.66E-03	1.00E-02	0	0.00000000e+000   0.0000e+000	
4078.304	239.03	2.63E-03	1.00E-02	0	0.00000000e+000   0.0000e+000	
4080.704	239.14	2.62E-03	1.00E-02	0	0.00000000e+000   0.0000e+000	
4083.105	239.26	2.61E-03	1.00E-02	0	0.00000000e+000   0.0000e+000	
4085.509	239.38	2.64E-03	1.00E-02	0	0.00000000e+000   0.0000e+000	
4087.905	239.5	2.65E-03	1.00E-02	0	0.00000000e+000   0.0000e+000	
4090.308	239.61	2.63E-03	1.00E-02	0	0.00000000e+000   0.0000e+000	
4092.707	239.73	2.66E-03	1.00E-02	0	0.00000000e+000   0.0000e+000	
4095.107	239.85	2.67E-03	1.00E-02	0	0.00000000e+000   0.0000e+000	
4097.513	239.97	2.67E-03	1.00E-02	0	0.00000000e+000   0.0000e+000	
4099.912	240.08	2.63E-03	1.00E-02	0	0.00000000e+000   0.0000e+000	
4102.315	240.2	2.66E-03	1.00E-02	0	0.00000000e+000   0.0000e+000	
4104.71	240.32	2.68E-03	1.00E-02	0	0.00000000e+000   0.0000e+000	
4107.112	240.43	2.69E-03	1.00E-02	0	0.00000000e+000   0.0000e+000	
4109.518	240.55	2.64E-03	1.00E-02	0	0.00000000e+000   0.0000e+000	
4111.911	240.67	2.67E-03	1.00E-02	0	0.00000000e+000   0.0000e+000	
4114.311	240.79	2.69E-03	1.00E-02	0	0.00000000e+000   0.0000e+000	
4116.711	240.91	2.71E-03	1.00E-02	0	0.00000000e+000   0.0000e+000	
4119.111	241.02	2.63E-03	1.00E-02	0	0.00000000e+000   0.0000e+000	
4121.515	241.14	2.66E-03	1.00E-02	0	0.00000000e+000   0.0000e+000	
4123.912	241.26	2.68E-03	1.00E-02	0	0.00000000e+000   0.0000e+000	
4126.313	241.37	2.68E-03	1.00E-02	0	0.00000000e+000   0.0000e+000	
4128.713	241.49	2.71E-03	1.00E-02	0	0.00000000e+000   0.0000e+000	
4131.114	241.61	2.64E-03	1.00E-02	0	0.00000000e+000   0.0000e+000	
4133.518	241.73	2.69E-03	1.00E-02	0	0.00000000e+000   0.0000e+000	
4135.914	241.84	2.68E-03	1.00E-02	0	0.00000000e+000   0.0000e+000	
4138.314	241.96	2.70E-03	1.00E-02	0	0.00000000e+000   0.0000e+000	
4140.717	242.08	2.68E-03	1.00E-02	0	0.00000000e+000   0.0000e+000	
4143.116	242.2	2.69E-03	1.00E-02	0	0.00000000e+000   0.0000e+000	
4145.522	242.31	2.70E-03	1.00E-02	0	0.00000000e+000   0.0000e+000	
4147.919	242.43	2.70E-03	1.00E-02	0	0.00000000e+000   0.0000e+000	
4150.321	242.55	2.72E-03	1.00E-02	0	0.00000000e+000   0.0000e+000	
4152.724	242.67	2.70E-03	1.00E-02	0	0.00000000e+000   0.0000e+000	
4155.119	242.78	2.72E-03	1.00E-02	0	0.00000000e+000   0.0000e+000	
4157.524	242.9	2.68E-03	1.00E-02	0	0.00000000e+000   0.0000e+000	
4159.923	243.02	2.72E-03	1.00E-02	0	0.00000000e+000   0.0000e+000	
4162.32	243.13	2.66E-03	1.00E-02	0	0.00000000e+000   0.0000e+000	
4164.72	243.25	2.68E-03	1.00E-02	0	0.00000000e+000   0.0000e+000	
4167.12	243.37	2.64E-03	1.00E-02	0	0.00000000e+000   0.0000e+000	
4169.524	243.49	2.68E-03	1.00E-02	0	0.00000000e+000   0.0000e+000	
4171.921	243.6	2.71E-03	1.00E-02	0	0.00000000e+000   0.0000e+000	
4174.321	243.72	2.69E-03	1.00E-02	0	0.00000000e+000   0.0000e+000	
4176.722	243.84	2.64E-03	1.00E-02	0	0.00000000e+000   0.0000e+000	
4179.123	243.95	2.66E-03	1.00E-02	0	0.00000000e+000   0.0000e+000	
4181.527	244.07	2.67E-03	1.00E-02	0	0.00000000e+000   0.0000e+000	
4183.924	244.19	2.67E-03	1.00E-02	0	0.00000000e+000   0.0000e+000	
4186.324	244.31	2.69E-03	1.00E-02	0	0.00000000e+000   0.0000e+000	
4188.725	244.43	2.65E-03	1.00E-02	0	0.00000000e+000   0.0000e+000	
4191.127	244.54	2.69E-03	1.00E-02	0	0.00000000e+000   0.0000e+000	
4193.529	244.66	2.72E-03	1.00E-02	0	0.00000000e+000   0.0000e+000	
4195.926	244.78	2.69E-03	1.00E-02	0	0.00000000e+000   0.0000e+000	
4198.328	244.89	2.68E-03	1.00E-02	0	0.00000000e+000   0.0000e+000	
4200.731	245.01	2.66E-03	1.00E-02	0	0.00000000e+000   0.0000e+000	
4203.133	245.13	2.71E-03	1.00E-02	0	0.00000000e+000   0.0000e+000	
4205.532	245.24	2.71E-03	1.00E-02	0	0.00000000e+000   0.0000e+000	
4207.93	245.36	2.75E-03	1.00E-02	0	0.00000000e+000   0.0000e+000	
4210.333	245.47	2.71E-03	1.00E-02	0	0.00000000e+000   0.0000e+000	
4212.728	245.59	2.72E-03	1.00E-02	0	0.00000000e+000   0.0000e+000	
4215.13	245.71	2.72E-03	1.00E-02	0	0.00000000e+000   0.0000e+000	
4217.533	245.83	2.71E-03	1.00E-02	0	0.00000000e+000   0.0000e+000	
4219.93	245.94	2.66E-03	1.00E-02	0	0.00000000e+000   0.0000e+000	
4222.33	246.06	2.72E-03	1.00E-02	0	0.00000000e+000   0.0000e+000	
4224.731	246.17	2.72E-03	1.00E-02	0	0.00000000e+000   0.0000e+000	
4227.131	246.29	2.71E-03	1.00E-02	0	0.00000000e+000   0.0000e+000	
4229.535	246.41	2.70E-03	1.00E-02	0	0.00000000e+000   0.0000e+000	
4231.932	246.52	2.73E-03	1.00E-02	0	0.00000000e+000   0.0000e+000	
4234.333	246.64	2.69E-03	1.00E-02	0	0.00000000e+000   0.0000e+000	
4236.733	246.76	2.72E-03	1.00E-02	0	0.00000000e+000   0.0000e+000	
4239.135	246.87	2.72E-03	1.00E-02	0	0.00000000e+000   0.0000e+000	
4241.537	246.99	2.74E-03	1.00E-02	0	0.00000000e+000   0.0000e+000	
4243.936	247.1	2.69E-03	1.00E-02	0	0.00000000e+000   0.0000e+000	
4246.336	247.22	2.70E-03	1.00E-02	0	0.00000000e+000   0.0000e+000	
4248.739	247.34	2.72E-03	1.00E-02	0	0.00000000e+000   0.0000e+000	
4251.142	247.45	2.74E-03	1.00E-02	0	0.00000000e+000   0.0000e+000	
4253.547	247.57	2.77E-03	1.00E-02	0	0.00000000e+000   0.0000e+000	
4255.938	247.68	2.73E-03	1.00E-02	0	0.00000000e+000   0.0000e+000	
4258.341	247.8	2.69E-03	1.00E-02	0	0.00000000e+000   0.0000e+000	
4260.738	247.92	2.70E-03	1.00E-02	0	0.00000000e+000   0.0000e+000	
4263.139	248.03	2.69E-03	1.00E-02	0	0.00000000e+000   0.0000e+000	
4265.542	248.15	2.69E-03	1.00E-02	0	0.00000000e+000   0.0000e+000	
4267.939	248.27	2.71E-03	1.00E-02	0	0.00000000e+000   0.0000e+000	
4270.34	248.38	2.71E-03	1.00E-02	0	0.00000000e+000   0.0000e+000	
4272.74	248.5	2.72E-03	1.00E-02	0	0.00000000e+000   0.0000e+000	
4275.141	248.62	2.71E-03	1.00E-02	0	0.00000000e+000   0.0000e+000	
4277.543	248.73	2.70E-03	1.00E-02	0	0.00000000e+000   0.0000e+000	
4279.941	248.85	2.76E-03	1.00E-02	0	0.00000000e+000   0.0000e+000	
4282.341	248.97	2.70E-03	1.00E-02	0	0.00000000e+000   0.0000e+000	
4284.743	249.08	2.74E-03	1.00E-02	0	0.00000000e+000   0.0000e+000	
4287.146	249.2	2.69E-03	1.00E-02	0	0.00000000e+000   0.0000e+000	
4289.547	249.32	2.79E-03	1.00E-02	0	0.00000000e+000   0.0000e+000	
4291.944	249.43	2.77E-03	1.00E-02	0	0.00000000e+000   0.0000e+000	
4294.347	249.55	2.76E-03	1.00E-02	0	0.00000000e+000   0.0000e+000	
4296.749	249.67	2.76E-03	1.00E-02	0	0.00000000e+000   0.0000e+000	
4299.152	249.78	2.69E-03	1.00E-02	0	0.00000000e+000   0.0000e+000	
4301.55	249.9	2.73E-03	1.00E-02	0	0.00000000e+000   0.0000e+000	
4303.949	250.02	2.73E-03	1.00E-02	0	0.00000000e+000   0.0000e+000	
4306.352	250.13	2.73E-03	1.00E-02	0	0.00000000e+000   0.0000e+000	
4308.747	250.25	2.79E-03	1.00E-02	0	0.00000000e+000   0.0000e+000	
4311.147	250.37	2.75E-03	1.00E-02	0	0.00000000e+000   0.0000e+000	
4313.55	250.49	2.75E-03	1.00E-02	0	0.00000000e+000   0.0000e+000	
4315.948	250.6	2.72E-03	1.00E-02	0	0.00000000e+000   0.0000e+000	
4318.348	250.72	2.75E-03	1.00E-02	0	0.00000000e+000   0.0000e+000	
4320.749	250.84	2.71E-03	1.00E-02	0	0.00000000e+000   0.0000e+000	
4323.149	250.95	2.74E-03	1.00E-02	0	0.00000000e+000   0.0000e+000	
4325.553	251.07	2.75E-03	1.00E-02	0	0.00000000e+000   0.0000e+000	
4327.95	251.19	2.78E-03	1.00E-02	0	0.00000000e+000   0.0000e+000	
4330.35	251.31	2.75E-03	1.00E-02	0	0.00000000e+000   0.0000e+000	
4332.753	251.42	2.80E-03	1.00E-02	0	0.00000000e+000   0.0000e+000	
4335.152	251.54	2.80E-03	1.00E-02	0	0.00000000e+000   0.0000e+000	
4337.558	251.66	2.77E-03	1.00E-02	0	0.00000000e+000   0.0000e+000	
4339.954	251.78	2.73E-03	1.00E-02	0	0.00000000e+000   0.0000e+000	
4342.356	251.9	2.76E-03	1.00E-02	0	0.00000000e+000   0.0000e+000	
4344.759	252.01	2.75E-03	1.00E-02	0	0.00000000e+000   0.0000e+000	
4347.155	252.13	2.76E-03	1.00E-02	0	0.00000000e+000   0.0000e+000	
4349.56	252.24	2.77E-03	1.00E-02	0	0.00000000e+000   0.0000e+000	
4351.958	252.36	2.75E-03	1.00E-02	0	0.00000000e+000   0.0000e+000	
4354.356	252.48	2.77E-03	1.00E-02	0	0.00000000e+000   0.0000e+000	
4356.756	252.6	2.77E-03	1.00E-02	0	0.00000000e+000   0.0000e+000	
4359.156	252.72	2.82E-03	1.00E-02	0	0.00000000e+000   0.0000e+000	
4361.56	252.83	2.82E-03	1.00E-02	0	0.00000000e+000   0.0000e+000	
4363.957	252.95	2.79E-03	1.00E-02	0	0.00000000e+000   0.0000e+000	
4366.357	253.07	2.73E-03	1.00E-02	0	0.00000000e+000   0.0000e+000	
4368.758	253.18	2.77E-03	1.00E-02	0	0.00000000e+000   0.0000e+000	
4371.159	253.3	2.79E-03	1.00E-02	0	0.00000000e+000   0.0000e+000	
4373.562	253.42	2.78E-03	1.00E-02	0	0.00000000e+000   0.0000e+000	
4375.959	253.54	2.79E-03	1.00E-02	0	0.00000000e+000   0.0000e+000	
4378.361	253.66	2.77E-03	1.00E-02	0	0.00000000e+000   0.0000e+000	
4380.761	253.77	2.76E-03	1.00E-02	0	0.00000000e+000   0.0000e+000	
4383.162	253.89	2.78E-03	1.00E-02	0	0.00000000e+000   0.0000e+000	
4385.565	254.01	2.74E-03	1.00E-02	0	0.00000000e+000   0.0000e+000	
4387.964	254.13	2.76E-03	1.00E-02	0	0.00000000e+000   0.0000e+000	
4390.368	254.25	2.81E-03	1.00E-02	0	0.00000000e+000   0.0000e+000	
4392.77	254.36	2.79E-03	1.00E-02	0	0.00000000e+000   0.0000e+000	
4395.164	254.48	2.80E-03	1.00E-02	0	0.00000000e+000   0.0000e+000	
4397.571	254.6	2.78E-03	1.00E-02	0	0.00000000e+000   0.0000e+000	
4399.971	254.72	2.79E-03	1.00E-02	0	0.00000000e+000   0.0000e+000	
4402.365	254.83	2.78E-03	1.00E-02	0	0.00000000e+000   0.0000e+000	
4404.764	254.95	2.81E-03	1.00E-02	0	0.00000000e+000   0.0000e+000	
4407.166	255.07	2.81E-03	1.00E-02	0	0.00000000e+000   0.0000e+000	
4409.57	255.19	2.76E-03	1.00E-02	0	0.00000000e+000   0.0000e+000	
4411.966	255.31	2.80E-03	1.00E-02	0	0.00000000e+000   0.0000e+000	
4414.367	255.42	2.80E-03	1.00E-02	0	0.00000000e+000   0.0000e+000	
4416.767	255.54	2.82E-03	1.00E-02	0	0.00000000e+000   0.0000e+000	
4419.167	255.66	2.81E-03	1.00E-02	0	0.00000000e+000   0.0000e+000	
4421.57	255.78	2.82E-03	1.00E-02	0	0.00000000e+000   0.0000e+000	
4423.969	255.9	2.81E-03	1.00E-02	0	0.00000000e+000   0.0000e+000	
4426.37	256.01	2.79E-03	1.00E-02	0	0.00000000e+000   0.0000e+000	
4428.769	256.13	2.83E-03	1.00E-02	0	0.00000000e+000   0.0000e+000	
4431.171	256.25	2.80E-03	1.00E-02	0	0.00000000e+000   0.0000e+000	
4433.574	256.37	2.79E-03	1.00E-02	0	0.00000000e+000   0.0000e+000	
4435.973	256.49	2.81E-03	1.00E-02	0	0.00000000e+000   0.0000e+000	
4438.376	256.61	2.80E-03	1.00E-02	0	0.00000000e+000   0.0000e+000	
4440.779	256.72	2.81E-03	1.00E-02	0	0.00000000e+000   0.0000e+000	
4443.174	256.84	2.82E-03	1.00E-02	0	0.00000000e+000   0.0000e+000	
4445.579	256.96	2.82E-03	1.00E-02	0	0.00000000e+000   0.0000e+000	
4447.972	257.08	2.81E-03	1.00E-02	0	0.00000000e+000   0.0000e+000	
4450.373	257.19	2.79E-03	1.00E-02	0	0.00000000e+000   0.0000e+000	
4452.774	257.31	2.81E-03	1.00E-02	0	0.00000000e+000   0.0000e+000	
4455.173	257.43	2.80E-03	1.00E-02	0	0.00000000e+000   0.0000e+000	
4457.577	257.55	2.78E-03	1.00E-02	0	0.00000000e+000   0.0000e+000	
4459.975	257.67	2.81E-03	1.00E-02	0	0.00000000e+000   0.0000e+000	
4462.376	257.79	2.84E-03	1.00E-02	0	0.00000000e+000   0.0000e+000	
4464.776	257.9	2.84E-03	1.00E-02	0	0.00000000e+000   0.0000e+000	
4467.177	258.02	2.84E-03	1.00E-02	0	0.00000000e+000   0.0000e+000	
4469.58	258.14	2.80E-03	1.00E-02	0	0.00000000e+000   0.0000e+000	
4471.977	258.26	2.87E-03	1.00E-02	0	0.00000000e+000   0.0000e+000	
4474.378	258.38	2.87E-03	1.00E-02	0	0.00000000e+000   0.0000e+000	
4476.778	258.49	2.85E-03	1.00E-02	0	0.00000000e+000   0.0000e+000	
4479.18	258.61	2.82E-03	1.00E-02	0	0.00000000e+000   0.0000e+000	
4481.583	258.73	2.86E-03	1.00E-02	0	0.00000000e+000   0.0000e+000	
4483.982	258.85	2.83E-03	1.00E-02	0	0.00000000e+000   0.0000e+000	
4486.385	258.97	2.85E-03	1.00E-02	0	0.00000000e+000   0.0000e+000	
4488.787	259.09	2.83E-03	1.00E-02	0	0.00000000e+000   0.0000e+000	
4491.182	259.2	2.85E-03	1.00E-02	0	0.00000000e+000   0.0000e+000	
4493.588	259.32	2.88E-03	1.00E-02	0	0.00000000e+000   0.0000e+000	
4495.987	259.44	2.87E-03	1.00E-02	0	0.00000000e+000   0.0000e+000	
4498.382	259.56	2.83E-03	1.00E-02	0	0.00000000e+000   0.0000e+000	
4500.783	259.68	2.90E-03	1.00E-02	0	0.00000000e+000   0.0000e+000	
4503.184	259.79	2.88E-03	1.00E-02	0	0.00000000e+000   0.0000e+000	
4505.587	259.91	2.87E-03	1.00E-02	0	0.00000000e+000   0.0000e+000	
4507.984	260.03	2.89E-03	1.00E-02	0	0.00000000e+000   0.0000e+000	
4510.384	260.15	2.89E-03	1.00E-02	0	0.00000000e+000   0.0000e+000	
4512.785	260.27	2.87E-03	1.00E-02	0	0.00000000e+000   0.0000e+000	
4515.186	260.38	2.89E-03	1.00E-02	0	0.00000000e+000   0.0000e+000	
4517.589	260.5	2.88E-03	1.00E-02	0	0.00000000e+000   0.0000e+000	
4519.986	260.62	2.87E-03	1.00E-02	0	0.00000000e+000   0.0000e+000	
4522.388	260.74	2.92E-03	1.00E-02	0	0.00000000e+000   0.0000e+000	
4524.787	260.85	2.84E-03	1.00E-02	0	0.00000000e+000   0.0000e+000	
4527.189	260.97	2.89E-03	1.00E-02	0	0.00000000e+000   0.0000e+000	
4529.593	261.09	2.88E-03	1.00E-02	0	0.00000000e+000   0.0000e+000	
4531.993	261.2	2.90E-03	1.00E-02	0	0.00000000e+000   0.0000e+000	
4534.395	261.32	2.95E-03	1.00E-02	0	0.00000000e+000   0.0000e+000	
4536.791	261.44	2.90E-03	1.00E-02	0	0.00000000e+000   0.0000e+000	
4539.192	261.55	2.90E-03	1.00E-02	0	0.00000000e+000   0.0000e+000	
4541.598	261.67	2.91E-03	1.00E-02	0	0.00000000e+000   0.0000e+000	
4543.991	261.79	2.88E-03	1.00E-02	0	0.00000000e+000   0.0000e+000	
4546.391	261.91	2.87E-03	1.00E-02	0	0.00000000e+000   0.0000e+000	
4548.792	262.02	2.89E-03	1.00E-02	0	0.00000000e+000   0.0000e+000	
4551.192	262.14	2.87E-03	1.00E-02	0	0.00000000e+000   0.0000e+000	
4553.596	262.26	2.89E-03	1.00E-02	0	0.00000000e+000   0.0000e+000	
4555.993	262.38	2.89E-03	1.00E-02	0	0.00000000e+000   0.0000e+000	
4558.393	262.49	2.90E-03	1.00E-02	0	0.00000000e+000   0.0000e+000	
4560.793	262.61	2.89E-03	1.00E-02	0	0.00000000e+000   0.0000e+000	
4563.195	262.73	2.92E-03	1.00E-02	0	0.00000000e+000   0.0000e+000	
4565.599	262.85	2.90E-03	1.00E-02	0	0.00000000e+000   0.0000e+000	
4567.995	262.96	2.88E-03	1.00E-02	0	0.00000000e+000   0.0000e+000	
4570.396	263.08	2.90E-03	1.00E-02	0	0.00000000e+000   0.0000e+000	
4572.796	263.2	2.90E-03	1.00E-02	0	0.00000000e+000   0.0000e+000	
4575.198	263.32	2.93E-03	1.00E-02	0	0.00000000e+000   0.0000e+000	
4577.6	263.43	2.89E-03	1.00E-02	0	0.00000000e+000   0.0000e+000	
4579.999	263.55	2.92E-03	1.00E-02	0	0.00000000e+000   0.0000e+000	
4582.4	263.67	2.91E-03	1.00E-02	0	0.00000000e+000   0.0000e+000	
4584.802	263.79	2.91E-03	1.00E-02	0	0.00000000e+000   0.0000e+000	
4587.205	263.91	2.88E-03	1.00E-02	0	0.00000000e+000   0.0000e+000	
4589.604	264.02	2.91E-03	1.00E-02	0	0.00000000e+000   0.0000e+000	
4592.002	264.14	2.90E-03	1.00E-02	0	0.00000000e+000   0.0000e+000	
4594.404	264.26	2.92E-03	1.00E-02	0	0.00000000e+000   0.0000e+000	
4596.8	264.38	2.87E-03	1.00E-02	0	0.00000000e+000   0.0000e+000	
4599.201	264.49	2.88E-03	1.00E-02	0	0.00000000e+000   0.0000e+000	
4601.606	264.61	2.88E-03	1.00E-02	0	0.00000000e+000   0.0000e+000	
4604.002	264.73	2.92E-03	1.00E-02	0	0.00000000e+000   0.0000e+000	
4606.403	264.85	2.94E-03	1.00E-02	0	0.00000000e+000   0.0000e+000	
4608.803	264.96	2.86E-03	1.00E-02	0	0.00000000e+000   0.0000e+000	
4611.204	265.08	2.91E-03	1.00E-02	0	0.00000000e+000   0.0000e+000	
4613.607	265.2	2.94E-03	1.00E-02	0	0.00000000e+000   0.0000e+000	
4616.005	265.32	2.85E-03	1.00E-02	0	0.00000000e+000   0.0000e+000	
4618.405	265.44	2.90E-03	1.00E-02	0	0.00000000e+000   0.0000e+000	
4620.806	265.56	2.87E-03	1.00E-02	0	0.00000000e+000   0.0000e+000	
4623.209	265.67	2.89E-03	1.00E-02	0	0.00000000e+000   0.0000e+000	
4625.61	265.79	2.89E-03	1.00E-02	0	0.00000000e+000   0.0000e+000	
4628.007	265.91	2.85E-03	1.00E-02	0	0.00000000e+000   0.0000e+000	
4630.409	266.03	2.89E-03	1.00E-02	0	0.00000000e+000   0.0000e+000	
4632.812	266.15	2.88E-03	1.00E-02	0	0.00000000e+000   0.0000e+000	
4635.215	266.26	2.89E-03	1.00E-02	0	0.00000000e+000   0.0000e+000	
4637.613	266.38	2.93E-03	1.00E-02	0	0.00000000e+000   0.0000e+000	
4640.013	266.5	2.90E-03	1.00E-02	0	0.00000000e+000   0.0000e+000	
4642.409	266.62	2.91E-03	1.00E-02	0	0.00000000e+000   0.0000e+000	
4644.809	266.73	2.96E-03	1.00E-02	0	0.00000000e+000   0.0000e+000	
4647.21	266.85	2.87E-03	1.00E-02	0	0.00000000e+000   0.0000e+000	
4649.613	266.97	2.89E-03	1.00E-02	0	0.00000000e+000   0.0000e+000	
4652.012	267.09	2.95E-03	1.00E-02	0	0.00000000e+000   0.0000e+000	
4654.412	267.21	2.92E-03	1.00E-02	0	0.00000000e+000   0.0000e+000	
4656.812	267.32	2.94E-03	1.00E-02	0	0.00000000e+000   0.0000e+000	
4659.213	267.44	2.90E-03	1.00E-02	0	0.00000000e+000   0.0000e+000	
4661.616	267.56	2.87E-03	1.00E-02	0	0.00000000e+000   0.0000e+000	
4664.013	267.68	2.95E-03	1.00E-02	0	0.00000000e+000   0.0000e+000	
4666.413	267.8	2.93E-03	1.00E-02	0	0.00000000e+000   0.0000e+000	
4668.815	267.92	2.90E-03	1.00E-02	0	0.00000000e+000   0.0000e+000	
4671.217	268.03	2.92E-03	1.00E-02	0	0.00000000e+000   0.0000e+000	
4673.619	268.15	2.96E-03	1.00E-02	0	0.00000000e+000   0.0000e+000	
4676.018	268.27	2.91E-03	1.00E-02	0	0.00000000e+000   0.0000e+000	
4678.418	268.39	2.90E-03	1.00E-02	0	0.00000000e+000   0.0000e+000	
4680.82	268.51	2.92E-03	1.00E-02	0	0.00000000e+000   0.0000e+000	
4683.222	268.62	2.96E-03	1.00E-02	0	0.00000000e+000   0.0000e+000	
4685.623	268.74	2.95E-03	1.00E-02	0	0.00000000e+000   0.0000e+000	
4688.02	268.86	2.92E-03	1.00E-02	0	0.00000000e+000   0.0000e+000	
4690.422	268.98	2.96E-03	1.00E-02	0	0.00000000e+000   0.0000e+000	
4692.819	269.09	2.99E-03	1.00E-02	0	0.00000000e+000   0.0000e+000	
4695.219	269.21	2.94E-03	1.00E-02	0	0.00000000e+000   0.0000e+000	
4697.623	269.33	2.96E-03	1.00E-02	0	0.00000000e+000   0.0000e+000	
4700.019	269.45	2.94E-03	1.00E-02	0	0.00000000e+000   0.0000e+000	
4702.42	269.57	2.92E-03	1.00E-02	0	0.00000000e+000   0.0000e+000	
4704.821	269.69	2.96E-03	1.00E-02	0	0.00000000e+000   0.0000e+000	
4707.221	269.81	2.95E-03	1.00E-02	0	0.00000000e+000   0.0000e+000	
4709.625	269.92	2.91E-03	1.00E-02	0	0.00000000e+000   0.0000e+000	
4712.022	270.04	2.95E-03	1.00E-02	0	0.00000000e+000   0.0000e+000	
4714.422	270.16	2.94E-03	1.00E-02	0	0.00000000e+000   0.0000e+000	
4716.823	270.28	2.98E-03	1.00E-02	0	0.00000000e+000   0.0000e+000	
4719.223	270.4	2.97E-03	1.00E-02	0	0.00000000e+000   0.0000e+000	
4721.63	270.52	2.97E-03	1.00E-02	0	0.00000000e+000   0.0000e+000	
4724.025	270.63	2.76E-03	1.00E-02	0	0.00000000e+000   0.0000e+000	
4726.427	270.75	2.88E-03	1.00E-02	0	0.00000000e+000   0.0000e+000	
4728.827	270.87	2.92E-03	1.00E-02	0	0.00000000e+000   0.0000e+000	
4731.229	270.99	2.95E-03	1.00E-02	0	0.00000000e+000   0.0000e+000	
4733.635	271.11	2.90E-03	1.00E-02	0	0.00000000e+000   0.0000e+000	
4736.027	271.22	2.89E-03	1.00E-02	0	0.00000000e+000   0.0000e+000	
4738.43	271.34	2.91E-03	1.00E-02	0	0.00000000e+000   0.0000e+000	
4740.832	271.46	2.91E-03	1.00E-02	0	0.00000000e+000   0.0000e+000	
4743.228	271.58	2.93E-03	1.00E-02	0	0.00000000e+000   0.0000e+000	
4745.631	271.7	3.00E-03	1.00E-02	0	0.00000000e+000   0.0000e+000	
4748.029	271.82	2.95E-03	1.00E-02	0	0.00000000e+000   0.0000e+000	
4750.429	271.93	2.95E-03	1.00E-02	0	0.00000000e+000   0.0000e+000	
4752.83	272.05	2.98E-03	1.00E-02	0	0.00000000e+000   0.0000e+000	
4755.23	272.17	2.96E-03	1.00E-02	0	0.00000000e+000   0.0000e+000	
4757.635	272.29	3.02E-03	1.00E-02	0	0.00000000e+000   0.0000e+000	
4760.032	272.41	2.99E-03	1.00E-02	0	0.00000000e+000   0.0000e+000	
4762.432	272.53	2.99E-03	1.00E-02	0	0.00000000e+000   0.0000e+000	
4764.832	272.65	2.96E-03	1.00E-02	0	0.00000000e+000   0.0000e+000	
4767.233	272.76	3.03E-03	1.00E-02	0	0.00000000e+000   0.0000e+000	
4769.637	272.88	2.96E-03	1.00E-02	0	0.00000000e+000   0.0000e+000	
4772.033	273	2.96E-03	1.00E-02	0	0.00000000e+000   0.0000e+000	
4774.436	273.12	2.97E-03	1.00E-02	0	0.00000000e+000   0.0000e+000	
4776.836	273.24	2.95E-03	1.00E-02	0	0.00000000e+000   0.0000e+000	
4779.238	273.35	2.93E-03	1.00E-02	0	0.00000000e+000   0.0000e+000	
4781.644	273.47	3.00E-03	1.00E-02	0	0.00000000e+000   0.0000e+000	
4784.042	273.59	2.98E-03	1.00E-02	0	0.00000000e+000   0.0000e+000	
4786.437	273.71	2.98E-03	1.00E-02	0	0.00000000e+000   0.0000e+000	
4788.84	273.83	3.00E-03	1.00E-02	0	0.00000000e+000   0.0000e+000	
4791.238	273.95	2.95E-03	1.00E-02	0	0.00000000e+000   0.0000e+000	
4793.641	274.06	3.00E-03	1.00E-02	0	0.00000000e+000   0.0000e+000	
4796.038	274.18	2.98E-03	1.00E-02	0	0.00000000e+000   0.0000e+000	
4798.439	274.3	3.03E-03	1.00E-02	0	0.00000000e+000   0.0000e+000	
4800.838	274.42	3.00E-03	1.00E-02	0	0.00000000e+000   0.0000e+000	
4803.239	274.54	2.96E-03	1.00E-02	0	0.00000000e+000   0.0000e+000	
4805.643	274.66	2.99E-03	1.00E-02	0	0.00000000e+000   0.0000e+000	
4808.04	274.78	3.00E-03	1.00E-02	0	0.00000000e+000   0.0000e+000	
4810.44	274.89	3.02E-03	1.00E-02	0	0.00000000e+000   0.0000e+000	
4812.842	275.01	2.98E-03	1.00E-02	0	0.00000000e+000   0.0000e+000	
4815.242	275.13	3.02E-03	1.00E-02	0	0.00000000e+000   0.0000e+000	
4817.645	275.25	3.00E-03	1.00E-02	0	0.00000000e+000   0.0000e+000	
4820.043	275.36	2.98E-03	1.00E-02	0	0.00000000e+000   0.0000e+000	
4822.443	275.48	3.01E-03	1.00E-02	0	0.00000000e+000   0.0000e+000	
4824.845	275.6	2.98E-03	1.00E-02	0	0.00000000e+000   0.0000e+000	
4827.245	275.72	3.03E-03	1.00E-02	0	0.00000000e+000   0.0000e+000	
4829.651	275.84	2.98E-03	1.00E-02	0	0.00000000e+000   0.0000e+000	
4832.05	275.95	2.96E-03	1.00E-02	0	0.00000000e+000   0.0000e+000	
4834.453	276.07	3.01E-03	1.00E-02	0	0.00000000e+000   0.0000e+000	
4836.847	276.19	3.04E-03	1.00E-02	0	0.00000000e+000   0.0000e+000	
4839.25	276.3	2.95E-03	1.00E-02	0	0.00000000e+000   0.0000e+000	
4841.649	276.42	2.99E-03	1.00E-02	0	0.00000000e+000   0.0000e+000	
4844.047	276.54	3.02E-03	1.00E-02	0	0.00000000e+000   0.0000e+000	
4846.448	276.65	2.98E-03	1.00E-02	0	0.00000000e+000   0.0000e+000	
4848.848	276.77	3.00E-03	1.00E-02	0	0.00000000e+000   0.0000e+000	
4851.248	276.89	2.99E-03	1.00E-02	0	0.00000000e+000   0.0000e+000	
4853.652	277.01	3.01E-03	1.00E-02	0	0.00000000e+000   0.0000e+000	
4856.049	277.13	3.02E-03	1.00E-02	0	0.00000000e+000   0.0000e+000	
4858.449	277.24	3.01E-03	1.00E-02	0	0.00000000e+000   0.0000e+000	
4860.851	277.36	3.04E-03	1.00E-02	0	0.00000000e+000   0.0000e+000	
4863.25	277.48	3.02E-03	1.00E-02	0	0.00000000e+000   0.0000e+000	
4865.654	277.59	3.05E-03	1.00E-02	0	0.00000000e+000   0.0000e+000	
4868.052	277.71	2.99E-03	1.00E-02	0	0.00000000e+000   0.0000e+000	
4870.453	277.83	2.99E-03	1.00E-02	0	0.00000000e+000   0.0000e+000	
4872.852	277.95	3.03E-03	1.00E-02	0	0.00000000e+000   0.0000e+000	
4875.255	278.06	3.04E-03	1.00E-02	0	0.00000000e+000   0.0000e+000	
4877.658	278.18	3.05E-03	1.00E-02	0	0.00000000e+000   0.0000e+000	
4880.058	278.3	2.97E-03	1.00E-02	0	0.00000000e+000   0.0000e+000	
4882.46	278.42	3.00E-03	1.00E-02	0	0.00000000e+000   0.0000e+000	
4884.856	278.53	3.08E-03	1.00E-02	0	0.00000000e+000   0.0000e+000	
4887.257	278.65	3.00E-03	1.00E-02	0	0.00000000e+000   0.0000e+000	
4889.663	278.77	3.06E-03	1.00E-02	0	0.00000000e+000   0.0000e+000	
4892.055	278.89	3.04E-03	1.00E-02	0	0.00000000e+000   0.0000e+000	
4894.456	279.01	3.03E-03	1.00E-02	0	0.00000000e+000   0.0000e+000	
4896.857	279.12	2.97E-03	1.00E-02	0	0.00000000e+000   0.0000e+000	
4899.257	279.24	3.01E-03	1.00E-02	0	0.00000000e+000   0.0000e+000	
4901.661	279.36	3.04E-03	1.00E-02	0	0.00000000e+000   0.0000e+000	
4904.057	279.48	3.01E-03	1.00E-02	0	0.00000000e+000   0.0000e+000	
4906.459	279.59	3.02E-03	1.00E-02	0	0.00000000e+000   0.0000e+000	
4908.859	279.71	3.06E-03	1.00E-02	0	0.00000000e+000   0.0000e+000	
4911.259	279.83	2.98E-03	1.00E-02	0	0.00000000e+000   0.0000e+000	
4913.664	279.95	3.02E-03	1.00E-02	0	0.00000000e+000   0.0000e+000	
4916.061	280.07	2.98E-03	1.00E-02	0	0.00000000e+000   0.0000e+000	
4918.464	280.19	2.91E-03	1.00E-02	0	0.00000000e+000   0.0000e+000	
4920.862	280.3	3.02E-03	1.00E-02	0	0.00000000e+000   0.0000e+000	
4923.262	280.42	2.96E-03	1.00E-02	0	0.00000000e+000   0.0000e+000	
4925.668	280.54	3.00E-03	1.00E-02	0	0.00000000e+000   0.0000e+000	
4928.067	280.66	2.95E-03	1.00E-02	0	0.00000000e+000   0.0000e+000	
4930.47	280.78	2.99E-03	1.00E-02	0	0.00000000e+000   0.0000e+000	
4932.865	280.89	3.05E-03	1.00E-02	0	0.00000000e+000   0.0000e+000	
4935.267	281.01	3.09E-03	1.00E-02	0	0.00000000e+000   0.0000e+000	
4937.667	281.13	2.99E-03	1.00E-02	0	0.00000000e+000   0.0000e+000	
4940.064	281.25	2.99E-03	1.00E-02	0	0.00000000e+000   0.0000e+000	
4942.465	281.37	3.03E-03	1.00E-02	0	0.00000000e+000   0.0000e+000	
4944.865	281.48	3.01E-03	1.00E-02	0	0.00000000e+000   0.0000e+000	
4947.266	281.6	3.03E-03	1.00E-02	0	0.00000000e+000   0.0000e+000	
4949.67	281.72	2.97E-03	1.00E-02	0	0.00000000e+000   0.0000e+000	
4952.067	281.84	3.00E-03	1.00E-02	0	0.00000000e+000   0.0000e+000	
4954.468	281.96	3.06E-03	1.00E-02	0	0.00000000e+000   0.0000e+000	
4956.868	282.08	3.03E-03	1.00E-02	0	0.00000000e+000   0.0000e+000	
4959.269	282.19	3.04E-03	1.00E-02	0	0.00000000e+000   0.0000e+000	
4961.672	282.31	3.12E-03	1.00E-02	0	0.00000000e+000   0.0000e+000	
4964.071	282.43	3.10E-03	1.00E-02	0	0.00000000e+000   0.0000e+000	
4966.471	282.55	3.17E-03	1.00E-02	0	0.00000000e+000   0.0000e+000	
4968.87	282.67	3.08E-03	1.00E-02	0	0.00000000e+000   0.0000e+000	
4971.273	282.79	3.06E-03	1.00E-02	0	0.00000000e+000   0.0000e+000	
4973.678	282.9	3.13E-03	1.00E-02	0	0.00000000e+000   0.0000e+000	
4976.078	283.02	3.01E-03	1.00E-02	0	0.00000000e+000   0.0000e+000	
4978.473	283.14	3.01E-03	1.00E-02	0	0.00000000e+000   0.0000e+000	
4980.874	283.26	3.06E-03	1.00E-02	0	0.00000000e+000   0.0000e+000	
4983.278	283.38	3.05E-03	1.00E-02	0	0.00000000e+000   0.0000e+000	
4985.677	283.49	2.98E-03	1.00E-02	0	0.00000000e+000   0.0000e+000	
4988.075	283.61	3.08E-03	1.00E-02	0	0.00000000e+000   0.0000e+000	
4990.475	283.73	3.03E-03	1.00E-02	0	0.00000000e+000   0.0000e+000	
4992.876	283.85	3.02E-03	1.00E-02	0	0.00000000e+000   0.0000e+000	
4995.275	283.97	3.10E-03	1.00E-02	0	0.00000000e+000   0.0000e+000	
4997.679	284.09	3.09E-03	1.00E-02	0	0.00000000e+000   0.0000e+000	
5000.076	284.21	3.03E-03	1.00E-02	0	0.00000000e+000   0.0000e+000	
5002.478	284.32	3.10E-03	1.00E-02	0	0.00000000e+000   0.0000e+000	
5004.878	284.44	3.03E-03	1.00E-02	0	0.00000000e+000   0.0000e+000	
5007.277	284.56	3.07E-03	1.00E-02	0	0.00000000e+000   0.0000e+000	
5009.682	284.68	3.07E-03	1.00E-02	0	0.00000000e+000   0.0000e+000	
5012.079	284.8	3.02E-03	1.00E-02	0	0.00000000e+000   0.0000e+000	
5014.48	284.92	3.15E-03	1.00E-02	0	0.00000000e+000   0.0000e+000	
5016.88	285.03	3.04E-03	1.00E-02	0	0.00000000e+000   0.0000e+000	
5019.28	285.15	3.01E-03	1.00E-02	0	0.00000000e+000   0.0000e+000	
5021.686	285.27	3.02E-03	1.00E-02	0	0.00000000e+000   0.0000e+000	
5024.085	285.39	3.13E-03	1.00E-02	0	0.00000000e+000   0.0000e+000	
5026.487	285.51	3.10E-03	1.00E-02	0	0.00000000e+000   0.0000e+000	
5028.882	285.62	3.06E-03	1.00E-02	0	0.00000000e+000   0.0000e+000	
5031.285	285.74	3.13E-03	1.00E-02	0	0.00000000e+000   0.0000e+000	
5033.69	285.86	3.13E-03	1.00E-02	0	0.00000000e+000   0.0000e+000	
5036.084	285.98	3.08E-03	1.00E-02	0	0.00000000e+000   0.0000e+000	
5038.484	286.1	3.10E-03	1.00E-02	0	0.00000000e+000   0.0000e+000	
5040.884	286.22	3.13E-03	1.00E-02	0	0.00000000e+000   0.0000e+000	
5043.284	286.33	3.07E-03	1.00E-02	0	0.00000000e+000   0.0000e+000	
5045.688	286.45	3.10E-03	1.00E-02	0	0.00000000e+000   0.0000e+000	
5048.085	286.57	3.06E-03	1.00E-02	0	0.00000000e+000   0.0000e+000	
5050.486	286.69	3.06E-03	1.00E-02	0	0.00000000e+000   0.0000e+000	
5052.887	286.81	3.08E-03	1.00E-02	0	0.00000000e+000   0.0000e+000	
5055.287	286.93	3.10E-03	1.00E-02	0	0.00000000e+000   0.0000e+000	
5057.691	287.04	3.04E-03	1.00E-02	0	0.00000000e+000   0.0000e+000	
5060.089	287.16	3.05E-03	1.00E-02	0	0.00000000e+000   0.0000e+000	
5062.488	287.28	3.04E-03	1.00E-02	0	0.00000000e+000   0.0000e+000	
5064.891	287.4	3.13E-03	1.00E-02	0	0.00000000e+000   0.0000e+000	
5067.29	287.52	3.11E-03	1.00E-02	0	0.00000000e+000   0.0000e+000	
5069.696	287.64	3.11E-03	1.00E-02	0	0.00000000e+000   0.0000e+000	
5072.096	287.75	3.13E-03	1.00E-02	0	0.00000000e+000   0.0000e+000	
5074.492	287.87	3.06E-03	1.00E-02	0	0.00000000e+000   0.0000e+000	
5076.893	287.99	3.11E-03	1.00E-02	0	0.00000000e+000   0.0000e+000	
5079.296	288.11	3.09E-03	1.00E-02	0	0.00000000e+000   0.0000e+000	
5081.701	288.23	3.05E-03	1.00E-02	0	0.00000000e+000   0.0000e+000	
5084.092	288.35	3.10E-03	1.00E-02	0	0.00000000e+000   0.0000e+000	
5086.492	288.46	3.13E-03	1.00E-02	0	0.00000000e+000   0.0000e+000	
5088.893	288.58	3.13E-03	1.00E-02	0	0.00000000e+000   0.0000e+000	
5091.293	288.7	3.18E-03	1.00E-02	0	0.00000000e+000   0.0000e+000	
5093.697	288.82	3.16E-03	1.00E-02	0	0.00000000e+000   0.0000e+000	
5096.094	288.94	3.14E-03	1.00E-02	0	0.00000000e+000   0.0000e+000	
5098.494	289.06	3.16E-03	1.00E-02	0	0.00000000e+000   0.0000e+000	
5100.895	289.18	3.18E-03	1.00E-02	0	0.00000000e+000   0.0000e+000	
5103.295	289.29	3.14E-03	1.00E-02	0	0.00000000e+000   0.0000e+000	
5105.7	289.41	3.18E-03	1.00E-02	0	0.00000000e+000   0.0000e+000	
5108.096	289.53	3.13E-03	1.00E-02	0	0.00000000e+000   0.0000e+000	
5110.498	289.65	3.08E-03	1.00E-02	0	0.00000000e+000   0.0000e+000	
5112.898	289.77	3.14E-03	1.00E-02	0	0.00000000e+000   0.0000e+000	
5115.3	289.88	3.13E-03	1.00E-02	0	0.00000000e+000   0.0000e+000	
5117.703	290	3.12E-03	1.00E-02	0	0.00000000e+000   0.0000e+000	
5120.101	290.12	3.13E-03	1.00E-02	0	0.00000000e+000   0.0000e+000	
5122.504	290.24	3.22E-03	1.00E-02	0	0.00000000e+000   0.0000e+000	
5124.907	290.35	3.22E-03	1.00E-02	0	0.00000000e+000   0.0000e+000	
5127.302	290.47	3.13E-03	1.00E-02	0	0.00000000e+000   0.0000e+000	
5129.708	290.59	3.12E-03	1.00E-02	0	0.00000000e+000   0.0000e+000	
5132.101	290.71	3.17E-03	1.00E-02	0	0.00000000e+000   0.0000e+000	
5134.501	290.82	3.15E-03	1.00E-02	0	0.00000000e+000   0.0000e+000	
5136.901	290.94	3.17E-03	1.00E-02	0	0.00000000e+000   0.0000e+000	
5139.301	291.06	3.20E-03	1.00E-02	0	0.00000000e+000   0.0000e+000	
5141.706	291.18	3.18E-03	1.00E-02	0	0.00000000e+000   0.0000e+000	
5144.103	291.29	3.15E-03	1.00E-02	0	0.00000000e+000   0.0000e+000	
5146.503	291.41	3.14E-03	1.00E-02	0	0.00000000e+000   0.0000e+000	
5148.904	291.53	3.20E-03	1.00E-02	0	0.00000000e+000   0.0000e+000	
5151.304	291.64	3.11E-03	1.00E-02	0	0.00000000e+000   0.0000e+000	
5153.708	291.76	3.18E-03	1.00E-02	0	0.00000000e+000   0.0000e+000	
5156.104	291.88	3.18E-03	1.00E-02	0	0.00000000e+000   0.0000e+000	
5158.506	292	3.22E-03	1.00E-02	0	0.00000000e+000   0.0000e+000	
5160.907	292.11	3.19E-03	1.00E-02	0	0.00000000e+000   0.0000e+000	
5163.308	292.23	3.14E-03	1.00E-02	0	0.00000000e+000   0.0000e+000	
5165.711	292.35	3.21E-03	1.00E-02	0	0.00000000e+000   0.0000e+000	
5168.11	292.47	3.24E-03	1.00E-02	0	0.00000000e+000   0.0000e+000	
5170.51	292.58	3.17E-03	1.00E-02	0	0.00000000e+000   0.0000e+000	
5172.912	292.7	3.11E-03	1.00E-02	0	0.00000000e+000   0.0000e+000	
5175.315	292.82	3.02E-03	1.00E-02	0	0.00000000e+000   0.0000e+000	
5177.714	292.93	3.10E-03	1.00E-02	0	0.00000000e+000   0.0000e+000	
5180.112	293.05	3.07E-03	1.00E-02	0	0.00000000e+000   0.0000e+000	
5182.517	293.17	3.11E-03	1.00E-02	0	0.00000000e+000   0.0000e+000	
5184.91	293.29	3.12E-03	1.00E-02	0	0.00000000e+000   0.0000e+000	
5187.31	293.41	3.12E-03	1.00E-02	0	0.00000000e+000   0.0000e+000	
5189.714	293.52	3.12E-03	1.00E-02	0	0.00000000e+000   0.0000e+000	
5192.111	293.64	3.17E-03	1.00E-02	0	0.00000000e+000   0.0000e+000	
5194.512	293.76	3.16E-03	1.00E-02	0	0.00000000e+000   0.0000e+000	
5196.913	293.88	3.13E-03	1.00E-02	0	0.00000000e+000   0.0000e+000	
5199.313	294	3.11E-03	1.00E-02	0	0.00000000e+000   0.0000e+000	
5201.718	294.11	3.17E-03	1.00E-02	0	0.00000000e+000   0.0000e+000	
5204.114	294.23	3.28E-03	1.00E-02	0	0.00000000e+000   0.0000e+000	
5206.515	294.35	3.07E-03	1.00E-02	0	0.00000000e+000   0.0000e+000	
5208.915	294.47	3.15E-03	1.00E-02	0	0.00000000e+000   0.0000e+000	
5211.318	294.59	3.10E-03	1.00E-02	0	0.00000000e+000   0.0000e+000	
5213.72	294.7	3.13E-03	1.00E-02	0	0.00000000e+000   0.0000e+000	
5216.12	294.82	3.13E-03	1.00E-02	0	0.00000000e+000   0.0000e+000	
5218.522	294.94	3.23E-03	1.00E-02	0	0.00000000e+000   0.0000e+000	
5220.924	295.05	3.13E-03	1.00E-02	0	0.00000000e+000   0.0000e+000	
5223.319	295.17	3.22E-03	1.00E-02	0	0.00000000e+000   0.0000e+000	
5225.725	295.29	3.15E-03	1.00E-02	0	0.00000000e+000   0.0000e+000	
5228.124	295.4	3.11E-03	1.00E-02	0	0.00000000e+000   0.0000e+000	
5230.519	295.52	3.25E-03	1.00E-02	0	0.00000000e+000   0.0000e+000	
5232.92	295.63	3.20E-03	1.00E-02	0	0.00000000e+000   0.0000e+000	
5235.32	295.75	3.13E-03	1.00E-02	0	0.00000000e+000   0.0000e+000	
5237.723	295.87	3.13E-03	1.00E-02	0	0.00000000e+000   0.0000e+000	
5240.12	295.98	3.12E-03	1.00E-02	0	0.00000000e+000   0.0000e+000	
5242.521	296.1	3.14E-03	1.00E-02	0	0.00000000e+000   0.0000e+000	
5244.921	296.21	3.15E-03	1.00E-02	0	0.00000000e+000   0.0000e+000	
5247.323	296.33	3.17E-03	1.00E-02	0	0.00000000e+000   0.0000e+000	
5249.726	296.44	3.20E-03	1.00E-02	0	0.00000000e+000   0.0000e+000	
5252.123	296.56	3.18E-03	1.00E-02	0	0.00000000e+000   0.0000e+000	
5254.526	296.67	3.21E-03	1.00E-02	0	0.00000000e+000   0.0000e+000	
5256.924	296.79	3.24E-03	1.00E-02	0	0.00000000e+000   0.0000e+000	
5259.324	296.91	3.19E-03	1.00E-02	0	0.00000000e+000   0.0000e+000	
5261.73	297.02	3.17E-03	1.00E-02	0	0.00000000e+000   0.0000e+000	
5264.129	297.14	3.19E-03	1.00E-02	0	0.00000000e+000   0.0000e+000	
5266.532	297.25	3.21E-03	1.00E-02	0	0.00000000e+000   0.0000e+000	
5268.928	297.37	3.20E-03	1.00E-02	0	0.00000000e+000   0.0000e+000	
5271.329	297.48	3.21E-03	1.00E-02	0	0.00000000e+000   0.0000e+000	
5273.735	297.6	3.28E-03	1.00E-02	0	0.00000000e+000   0.0000e+000	
5276.127	297.72	3.23E-03	1.00E-02	0	0.00000000e+000   0.0000e+000	
5278.528	297.83	3.17E-03	1.00E-02	0	0.00000000e+000   0.0000e+000	
5280.929	297.95	3.24E-03	1.00E-02	0	0.00000000e+000   0.0000e+000	
5283.33	298.07	3.28E-03	1.00E-02	0	0.00000000e+000   0.0000e+000	
5285.732	298.18	3.30E-03	1.00E-02	0	0.00000000e+000   0.0000e+000	
5288.129	298.3	3.25E-03	1.00E-02	0	0.00000000e+000   0.0000e+000	
5290.53	298.42	3.28E-03	1.00E-02	0	0.00000000e+000   0.0000e+000	
5292.93	298.53	3.30E-03	1.00E-02	0	0.00000000e+000   0.0000e+000	
5295.331	298.65	3.29E-03	1.00E-02	0	0.00000000e+000   0.0000e+000	
5297.736	298.77	3.20E-03	1.00E-02	0	0.00000000e+000   0.0000e+000	
5300.133	298.89	3.21E-03	1.00E-02	0	0.00000000e+000   0.0000e+000	
5302.536	299	3.23E-03	1.00E-02	0	0.00000000e+000   0.0000e+000	
5304.934	299.12	3.23E-03	1.00E-02	0	0.00000000e+000   0.0000e+000	
5307.334	299.24	3.24E-03	1.00E-02	0	0.00000000e+000   0.0000e+000	
5309.74	299.35	3.24E-03	1.00E-02	0	0.00000000e+000   0.0000e+000	
5312.139	299.47	3.22E-03	1.00E-02	0	0.00000000e+000   0.0000e+000	
5314.541	299.59	3.23E-03	1.00E-02	0	0.00000000e+000   0.0000e+000	
